# SOURCE  = 'Quimby et al. 2018' /                                                
# OBJECT  = 'PTF12dam'           /                                                
# Z       =             0.107500 / wavelengths in OBSERVER FRAME                 
# NORM    =          1.45588E-16 / fluxes divided by norm                         
# CLIPPED =                    1 / galaxy emission lines removed                  
# SMOOTHED=                    1 / spectrum has been smoothed                     
# COLUMN01= 'Wavelength (Angstrom)' /                                             
# COLUMN02= 'Flux Density (erg/s/cm2/A)' /                                        
# COLUMN03= 'Flux Density Uncertainty (erg/s/cm2/A)' /                            
# END                                                                             
# 
# 
# 
# 
# 
# 
# 
# 
# 
# 
# Converted to Observer Frame using z=0.1075
 3918.40553 5.0677724 0.0575668
 3922.31847 5.0320482 0.0570657
 3926.24339 4.9415846 0.0565125
 3930.16831 4.8545051 0.0560484
 3934.10551 4.8243332 0.0549986
 3938.03043 4.7798538 0.0551218
 3941.96792 4.7666593 0.0541207
 3945.91740 4.7383051 0.0542778
 3949.85460 4.7145715 0.0533214
 3953.81635 4.6679258 0.0535082
 3957.76582 4.6150665 0.0525929
 3961.72758 4.6064701 0.0528051
 3965.68933 4.6140890 0.0519272
 3969.65108 4.6060600 0.0521609
 3973.62511 4.5848303 0.0513167
 3977.59914 4.5582271 0.0509994
 3981.57317 4.5811491 0.0507536
 3985.55948 4.6235356 0.0504575
 3989.54579 4.6095304 0.0502303
 3993.53210 4.6018257 0.0499502
 3997.51840 4.6128402 0.0497390
 4001.51699 4.5632772 0.0494700
 4005.52785 4.5816326 0.0492725
 4009.52644 4.5934973 0.0490094
 4013.53730 4.6359873 0.0482729
 4017.54816 4.6572871 0.0485608
 4021.57130 4.7194552 0.0478265
 4025.59445 4.7314482 0.0481168
 4029.61759 4.7893362 0.0473802
 4033.65300 4.8323569 0.0476702
 4037.67584 4.8464355 0.0469268
 4041.72354 4.8116531 0.0466875
 4045.75896 4.7860241 0.0469388
 4049.80665 4.7596202 0.0461999
 4053.85435 4.7460914 0.0464424
 4057.91402 4.7171597 0.0456860
 4061.97400 4.6475101 0.0454080
 4066.03397 4.6994610 0.0451385
 4070.09394 4.7105308 0.0448277
 4074.16589 4.7679915 0.0445504
 4078.23814 4.8516097 0.0442023
 4082.32267 4.9288001 0.0438515
 4086.40720 4.9154334 0.0435247
 4090.49143 4.8910975 0.0431294
 4094.57596 4.9111214 0.0423097
 4098.67276 4.9008031 0.0423466
 4102.76927 4.8753881 0.0418958
 4106.87835 4.7958961 0.0410285
 4110.98714 4.7186513 0.0410056
 4115.09622 4.7057180 0.0401277
 4119.20530 4.6580753 0.0395967
 4123.32636 4.6384854 0.0395190
 4127.44772 4.6081009 0.0386170
 4131.58106 4.5328150 0.0380423
 4135.71470 4.4359183 0.0379177
 4139.84804 4.3550553 0.0370008
 4143.99396 4.3360553 0.0363986
 4148.13957 4.3076701 0.0359405
 4152.28549 4.3187184 0.0353180
 4156.43110 4.3107495 0.0347000
 4160.58930 4.3003030 0.0342335
 4164.74719 4.3419056 0.0336033
 4168.91736 4.3696790 0.0329811
 4173.08783 4.4117022 0.0321019
 4177.25801 4.4356542 0.0318912
 4181.44075 4.4183345 0.0312769
 4185.61093 4.4547710 0.0304256
 4189.80565 4.4633141 0.0302166
 4193.98840 4.4662809 0.0296222
 4198.18313 4.4787941 0.0288090
 4202.39013 4.5193076 0.0282532
 4206.58516 4.5373297 0.0280517
 4210.79216 4.5501466 0.0272864
 4214.99917 4.5399022 0.0267698
 4219.21845 4.5293317 0.0262755
 4223.43803 4.5173559 0.0261064
 4227.66959 4.4901056 0.0254264
 4231.88887 4.4377389 0.0249867
 4236.12043 4.4116993 0.0245756
 4240.36426 4.3781304 0.0242567
 4244.59612 4.3490691 0.0238843
 4248.83996 4.3294501 0.0235433
 4253.09607 4.3166671 0.0232351
 4257.35219 4.3005476 0.0229995
 4261.60830 4.2577238 0.0227406
 4265.86442 4.2366724 0.0225184
 4270.13281 4.2476168 0.0223341
 4274.40120 4.2528429 0.0219754
 4278.68217 4.2611127 0.0220739
 4282.96284 4.2894216 0.0219905
 4287.24351 4.3480678 0.0219499
 4291.52418 4.3829346 0.0217305
 4295.81712 4.4400778 0.0217631
 4300.11007 4.4716740 0.0218410
 4304.41530 4.4817414 0.0221529
 4308.72052 4.4726338 0.0220799
 4313.02574 4.4402933 0.0222735
 4317.34295 4.4109378 0.0225107
 4321.66045 4.3868051 0.0227901
 4325.97795 4.3746963 0.0232874
 4330.30773 4.3469181 0.0243295
 4334.63751 4.3694701 0.0238638
 4338.97957 4.4141159 0.0243804
 4343.30935 4.3883657 0.0255083
 4347.65140 4.4282918 0.0268952
 4352.00544 4.4568429 0.0277924
 4356.35977 4.5155616 0.0289078
 4360.71411 4.4998865 0.0296753
 4365.06844 4.5061936 0.0296595
 4369.43505 4.5224295 0.0293106
 4373.80137 4.4809594 0.0289696
 4378.18026 4.4659262 0.0286533
 4382.55915 4.4630413 0.0302291
 4386.95001 4.4471836 0.0307066
 4391.32890 4.4396682 0.0305317
 4395.72007 4.4234514 0.0312042
 4400.12322 4.4112411 0.0318839
 4404.51438 4.3994064 0.0327836
 4408.91783 4.3676410 0.0330459
 4413.33325 4.3499622 0.0337270
 4417.74897 4.3007646 0.0344073
 4422.16470 4.2583055 0.0350847
 4426.59240 4.1945567 0.0357571
 4431.00812 4.1516094 0.0364223
 4435.44810 4.1086550 0.0370782
 4439.87610 4.0858245 0.0377225
 4444.31607 4.0497804 0.0383532
 4448.76863 4.0449739 0.0385027
 4453.20861 4.0680161 0.0390908
 4457.66116 4.0313754 0.0396593
 4462.12569 3.9867277 0.0402060
 4466.59053 3.9581642 0.0407289
 4471.05506 3.9270563 0.0412258
 4475.53217 3.9117031 0.0416945
 4479.99670 3.8741262 0.0421330
 4484.48579 3.8578656 0.0425391
 4488.96290 3.8681386 0.0429107
 4493.45199 3.8873117 0.0432461
 4497.95335 3.9020791 0.0435430
 4502.44274 3.9303613 0.0438000
 4506.95639 3.9739494 0.0440159
 4511.45775 3.9980185 0.0437387
 4515.97169 3.9840777 0.0438750
 4520.48534 3.9558668 0.0439702
 4525.01126 3.9223311 0.0440253
 4529.52490 3.8744798 0.0440415
 4534.06340 3.8676269 0.0440199
 4538.58932 3.8347793 0.0439618
 4543.13979 3.8311043 0.0438686
 4547.67799 3.8380942 0.0437418
 4552.22847 3.8405168 0.0435827
 4556.77924 3.8643687 0.0433926
 4561.32972 3.8737195 0.0431731
 4565.89247 3.8670528 0.0429256
 4570.46750 3.8512299 0.0426513
 4575.03026 3.8424797 0.0423516
 4579.60529 3.8281343 0.0420286
 4584.19260 3.7991593 0.0416830
 4588.76763 3.8057020 0.0413163
 4593.36721 3.8265815 0.0405173
 4597.95452 3.8189111 0.0401143
 4602.55411 3.8311648 0.0396949
 4607.15369 3.8060651 0.0392605
 4611.76556 3.7673376 0.0391225
 4616.37742 3.7371593 0.0386511
 4620.98928 3.6818352 0.0381687
 4625.61343 3.6633546 0.0376769
 4630.23757 3.6254938 0.0371770
 4634.87398 3.6001461 0.0366706
 4639.49813 3.5778477 0.0357743
 4644.14682 3.5506222 0.0352632
 4648.78324 3.5365465 0.0347499
 4653.43164 3.4887967 0.0342358
 4658.09261 3.4512761 0.0337224
 4662.75358 3.4117680 0.0332111
 4667.41456 3.3675449 0.0327031
 4672.07553 3.3455069 0.0320714
 4676.74848 3.2992520 0.0315687
 4681.43401 3.3031435 0.0310739
 4686.10726 3.2820661 0.0305884
 4690.79279 3.2714438 0.0301134
 4695.49030 3.2603414 0.0296503
 4700.18811 3.2656341 0.0288777
 4704.88591 3.2767246 0.0284402
 4709.58342 3.2676444 0.0280177
 4714.29350 3.2775862 0.0278206
 4719.01586 3.2840929 0.0274281
 4723.73793 3.2954619 0.0267681
 4728.46029 3.2997718 0.0264054
 4733.18235 3.2756865 0.0260585
 4737.91699 3.2774179 0.0257270
 4742.65133 3.2997563 0.0254106
 4747.39824 3.2978828 0.0250512
 4752.14486 3.3024898 0.0247581
 4756.90405 3.3144946 0.0244789
 4761.65067 3.3260093 0.0242130
 4766.42214 3.3597488 0.0237261
 4771.18104 3.3794737 0.0236746
 4775.95251 3.3891916 0.0234396
 4780.73596 3.4169810 0.0232162
 4785.51971 3.4354475 0.0227833
 4790.30316 3.4645772 0.0225845
 4795.08661 3.4920321 0.0230254
 4799.88263 3.5332148 0.0230890
 4804.69064 3.5639584 0.0220319
 4809.48636 3.5934792 0.0223099
 4814.30695 3.6059408 0.0228057
 4819.11495 3.6080050 0.0234911
 4823.93523 3.6099167 0.0235942
 4828.75582 3.5957756 0.0234473
 4833.58837 3.5637040 0.0238369
 4838.42093 3.5510142 0.0225981
 4843.26577 3.5253849 0.0217433
 4848.09863 3.4945085 0.0216839
 4852.95575 3.4694457 0.0219490
 4857.80058 3.4145799 0.0235155
 4862.65770 3.3687592 0.0228418
 4867.52709 3.3216059 0.0224044
 4872.39648 3.2698784 0.0217652
 4877.26588 3.2113595 0.0211255
 4882.14784 3.1589682 0.0200689
 4887.02951 3.1056507 0.0194436
 4891.91118 3.0635905 0.0196863
 4896.80513 3.0369291 0.0198242
 4901.69908 3.0311728 0.0189222
 4906.60530 3.0057738 0.0187822
 4911.51153 3.0074065 0.0186147
 4916.41775 3.0106432 0.0184630
 4921.33626 3.0186143 0.0183109
 4926.25476 3.0357099 0.0181265
 4931.18554 3.0468991 0.0179627
 4936.11632 3.0696824 0.0176318
 4941.05908 3.0904160 0.0175995
 4945.98986 3.1141820 0.0174268
 4950.94519 3.1187737 0.0170916
 4955.90053 3.1282585 0.0170444
 4960.85586 3.1353703 0.0167058
 4965.81120 3.1481919 0.0165326
 4970.77851 3.1559379 0.0164742
 4975.74612 3.1724303 0.0161400
 4980.72601 3.1733468 0.0160815
 4985.70590 3.1812692 0.0157497
 4990.68580 3.1928020 0.0155776
 4995.67766 3.1851897 0.0153656
 5000.68211 3.1851823 0.0151955
 5005.67428 3.1775200 0.0150319
 5010.69070 3.1599307 0.0148258
 5015.69515 3.1394291 0.0146673
 5020.71187 3.1246054 0.0144722
 5025.72859 3.1110363 0.0143209
 5030.75699 3.0874231 0.0140345
 5035.78599 3.0662792 0.0139969
 5040.82757 3.0546536 0.0137271
 5045.86855 3.0465589 0.0136994
 5050.90953 3.0278218 0.0134477
 5055.96308 3.0105362 0.0134322
 5061.01664 3.0011885 0.0132002
 5066.08217 2.9970407 0.0131994
 5071.14771 2.9855101 0.0129886
 5076.21324 2.9791534 0.0129031
 5081.29135 2.9734392 0.0128170
 5086.38144 2.9626830 0.0127503
 5091.45955 2.9355135 0.0126893
 5096.56221 2.9064412 0.0126433
 5101.65230 2.8939700 0.0126093
 5106.75497 2.8704479 0.0125859
 5111.85704 2.8416870 0.0125806
 5116.97168 2.8176858 0.0124838
 5122.08692 2.7942650 0.0126059
 5127.21354 2.7771237 0.0125362
 5132.34076 2.7692199 0.0126852
 5137.47996 2.7535205 0.0126412
 5142.60718 2.7234247 0.0128157
 5147.75836 2.6964171 0.0127950
 5152.89756 2.6691983 0.0129927
 5158.04934 2.6509252 0.0129923
 5163.21309 2.6115942 0.0131189
 5168.37684 2.5805836 0.0132276
 5173.54060 2.5470438 0.0133714
 5178.71693 2.5116229 0.0134949
 5183.89266 2.4693339 0.0136524
 5189.08097 2.4466109 0.0138202
 5194.26928 2.4217858 0.0139562
 5199.47016 2.3821199 0.0141321
 5204.67045 2.3542802 0.0141775
 5209.87134 2.3445470 0.0144571
 5215.08420 2.3379445 0.0145018
 5220.29707 2.3456202 0.0147893
 5225.52191 2.3512032 0.0150764
 5230.74735 2.3565829 0.0153816
 5235.97219 2.3720696 0.0153107
 5241.20961 2.3961918 0.0155125
 5246.44703 2.3943732 0.0160817
 5251.69702 2.4033742 0.0168517
 5256.94642 2.3986850 0.0172095
 5262.20840 2.3881032 0.0175890
 5267.47037 2.3747208 0.0175484
 5272.73234 2.3704231 0.0173285
 5278.00630 2.3600554 0.0169753
 5283.29283 2.3535371 0.0165313
 5288.56738 2.3585029 0.0165714
 5293.86589 2.3483233 0.0175433
 5299.15241 2.3551908 0.0167553
 5304.45092 2.3702207 0.0167987
 5309.76201 2.3871334 0.0167157
 5315.07309 2.3905792 0.0167536
 5320.38417 2.4093833 0.0167759
 5325.70724 2.4385314 0.0167801
 5331.03030 2.4616637 0.0167669
 5336.36594 2.5019350 0.0167371
 5341.70158 2.5160272 0.0168284
 5347.03722 2.5296254 0.0166387
 5352.38484 2.5377543 0.0165598
 5357.74503 2.5284278 0.0164669
 5363.09265 2.5242176 0.0162379
 5368.46482 2.5301592 0.0162605
 5373.82502 2.5271647 0.0161272
 5379.19719 2.5182538 0.0163380
 5384.58194 2.5061667 0.0158336
 5389.96669 2.5142980 0.0157455
 5395.36341 2.5145164 0.0158998
 5400.74816 2.5132368 0.0160307
 5406.15687 2.5022867 0.0162314
 5411.56617 2.5040312 0.0162504
 5416.97548 2.5066600 0.0161550
 5422.38419 2.4822023 0.0155692
 5427.81805 2.4533107 0.0149676
 5433.23933 2.4394569 0.0143657
 5438.67319 2.4148521 0.0138907
 5444.11903 2.3899305 0.0135738
 5449.55289 2.3416698 0.0138526
 5455.01070 2.3110564 0.0132341
 5460.45654 2.2910788 0.0130191
 5465.92693 2.2736876 0.0128065
 5471.38535 2.2708905 0.0125179
 5476.86832 2.2766330 0.0123113
 5482.33871 2.2952244 0.0121096
 5487.82108 2.3030016 0.0119138
 5493.31603 2.3140867 0.0118318
 5498.79900 2.3232880 0.0115772
 5504.30593 2.3348105 0.0113999
 5509.80087 2.3443797 0.0112315
 5515.32038 2.3469267 0.0110729
 5520.82790 2.3424182 0.0109246
 5526.34740 2.3484228 0.0107873
 5531.87889 2.3344350 0.0106614
 5537.41097 2.3194892 0.0104761
 5542.95502 2.3062234 0.0103732
 5548.48651 2.2903883 0.0102819
 5554.04314 2.2721434 0.0102860
 5559.59918 2.2503364 0.0102142
 5565.15581 2.2354412 0.0101536
 5570.72383 2.2305059 0.0101037
 5576.29244 2.2363925 0.0100643
 5581.87363 2.2416501 0.0099599
 5587.45422 2.2529333 0.0099398
 5593.03541 2.2604251 0.0100103
 5598.62798 2.2691853 0.0104636
 5604.23373 2.2562048 0.0099547
 5609.83887 2.2498088 0.0100824
 5615.44462 2.2584729 0.0103963
 5621.06174 2.2586167 0.0107649
 5626.67947 2.2666681 0.0110900
 5632.30977 2.2813849 0.0112728
 5637.93947 2.3052413 0.0112117
 5643.58175 2.3126719 0.0110063
 5649.22343 2.3064916 0.0107384
 5654.87828 2.3115807 0.0105145
 5660.53254 2.3034434 0.0104882
 5666.18680 2.2816861 0.0108093
 5671.85363 2.2651701 0.0107370
 5677.53244 2.2568502 0.0106553
 5683.21185 2.2490139 0.0107614
 5688.89066 2.2696519 0.0108727
 5694.58205 2.2829022 0.0109175
 5700.27284 2.2769423 0.0110373
 5705.97621 2.2835250 0.0111614
 5711.68017 2.2806430 0.0112895
 5717.39552 2.2762363 0.0114215
 5723.11146 2.2615707 0.0115570
 5728.83938 2.2532833 0.0116960
 5734.55533 2.2313540 0.0119438
 5740.29523 2.2185102 0.0120912
 5746.03573 2.2013860 0.0122425
 5751.78820 2.1836433 0.0123979
 5757.54068 2.1710463 0.0124840
 5763.29316 2.1428225 0.0126476
 5769.05821 2.1069160 0.0128169
 5774.82327 2.0703239 0.0129928
 5780.60030 2.0446072 0.0131758
 5786.37733 2.0187979 0.0133665
 5792.16634 1.9952959 0.0135657
 5797.96793 1.9700571 0.0136979
 5803.75754 1.9597020 0.0139156
 5809.55912 1.9582675 0.0141437
 5815.37329 1.9565572 0.0143830
 5821.18685 1.9489698 0.0147661
 5827.01299 1.9340882 0.0150305
 5832.83914 1.9191608 0.0152278
 5838.67786 1.9123681 0.0155186
 5844.50400 1.9019002 0.0158240
 5850.35470 1.8941371 0.0161448
 5856.20479 1.8874724 0.0164815
 5862.06807 1.8689640 0.0167457
 5867.93074 1.8586406 0.0172775
 5873.79402 1.8472998 0.0176664
 5879.66927 1.8419198 0.0180743
 5885.54452 1.8172549 0.0185018
 5891.43175 1.7943265 0.0188546
 5897.31898 1.7735332 0.0193176
 5903.21879 1.7716277 0.0200001
 5909.13117 1.7818878 0.0205131
 5915.04296 1.7859634 0.0216657
 5920.95475 1.7747335 0.0234191
 5926.86713 1.7833295 0.0259354
 5932.80347 1.7965840 0.0264679
 5938.72783 1.8076761 0.0267629
 5944.66417 1.8080674 0.0297270
 5950.61309 1.7850803 0.0337126
 5956.56201 1.7568291 0.0373833
 5962.52291 1.7092493 0.0422954
 5968.48380 1.7308142 0.0411026
 5974.45727 1.7595686 0.0388285
 5980.43075 1.7717344 0.0362671
 5986.40422 1.7901356 0.0363669
 5992.40165 1.8170137 0.0399115
 5998.38770 1.8278124 0.0358928
 6004.38513 1.8411634 0.0340893
 6010.39573 1.8446461 0.0327311
 6016.40574 1.8423285 0.0331088
 6022.41574 1.8376254 0.0338081
 6028.45030 1.8240361 0.0346198
 6034.47289 1.8265671 0.0358716
 6040.50745 1.8133276 0.0381194
 6046.55459 1.7845849 0.0386374
 6052.58915 1.7537773 0.0378804
 6058.64826 1.7320274 0.0398705
 6064.70738 1.7057743 0.0428182
 6070.76649 1.6766001 0.0464705
 6076.83819 1.6841879 0.0484224
 6082.92186 1.7209239 0.0485971
 6089.00553 1.7358541 0.0489293
 6095.08920 1.7216220 0.0487445
 6101.18545 1.6511155 0.0433422
 6107.29367 1.6078578 0.0427845
 6113.40190 1.5362453 0.0492674
 6119.51013 1.5707309 0.0489378
 6125.63033 1.6113328 0.0481326
 6131.75113 1.6239135 0.0476104
 6137.88392 1.6546935 0.0460536
 6144.02868 1.7104863 0.0428252
 6150.17403 1.7801160 0.0399826
 6156.31879 1.8602020 0.0377838
 6162.47613 1.9145184 0.0365695
 6168.63347 1.9455197 0.0376643
 6174.80278 1.9573700 0.0349420
 6180.98467 1.9582874 0.0334261
 6187.16656 1.9439189 0.0320941
 6193.36103 1.9596807 0.0310499
 6199.54292 1.9705904 0.0297278
 6205.74937 1.9661057 0.0285832
 6211.95522 1.9601951 0.0271561
 6218.16166 1.9588664 0.0259342
 6224.38069 1.9569769 0.0244292
 6230.61109 1.9455990 0.0228410
 6236.84209 1.9304849 0.0215973
 6243.07309 1.9146460 0.0199906
 6249.31607 1.9018911 0.0187105
 6255.57163 1.8909768 0.0171096
 6261.82719 1.8730364 0.0158190
 6268.08274 1.8500227 0.0142481
 6274.35028 1.8289554 0.0127199
 6280.63039 1.8037336 0.0114562
 6286.91050 1.7729877 0.0099862
 6293.20259 1.7545373 0.0087855
 6299.49468 1.7536300 0.0074032
 6305.78677 1.7611701 0.0062918
 6312.10401 1.7697788 0.0050326
 6318.40808 1.7641618 0.0039419
 6324.72533 1.7441276 0.0031142
 6331.05395 1.7128974 0.0024621
 6337.38317 1.6819019 0.0018533
 6343.72437 1.6541989 0.0014255
 6350.06557 1.6290545 0.0010023
 6356.41935 1.6076592 0.0006937
 6362.77252 1.5907812 0.0005311
 6369.13888 1.5778140 0.0004383
 6375.50463 1.5651261 0.0004116
 6381.88237 1.5481811 0.0004066
 6388.26070 1.5261586 0.0004026
 6394.65101 1.5050349 0.0003949
 6401.05390 1.4882755 0.0003894
 6407.44421 1.4724631 0.0003919
 6413.85907 1.4537551 0.0003970
 6420.27394 1.4333934 0.0004040
 6426.68880 1.4156164 0.0004067
 6433.11565 1.4024373 0.0004322
 6439.55507 1.3933406 0.0005000
 6445.99449 1.3851242 0.0005987
 6452.43391 1.3781707 0.0007742
 6458.88590 1.3677776 0.0010044
 6465.34988 1.3488488 0.0012350
 6471.81385 1.3229852 0.0015735
 6478.28981 1.3120044 0.0019794
 6484.76636 1.3260885 0.0023459
 6491.25429 1.3619568 0.0028933
 6497.74282 1.3812191 0.0034197
 6504.24393 1.3781689 0.0038401
 6510.74444 1.3657566 0.0043226
 6517.25752 1.3647404 0.0047773
 6523.77061 1.3759757 0.0052093
 6530.29567 1.3947887 0.0055217
 6536.83331 1.4208585 0.0058695
 6543.37095 1.4598552 0.0061699
 6549.90860 1.5013829 0.0064186
 6556.45821 1.5239563 0.0065498
 6563.02041 1.5328894 0.0067302
 6569.58261 1.5417762 0.0068208
 6576.15678 1.5551866 0.0068578
 6582.71897 1.5634531 0.0067981
 6589.30573 1.5636607 0.0067415
 6595.90445 1.5608298 0.0066412
 6602.49121 1.5547211 0.0065007
 6609.10191 1.5433258 0.0063828
 6615.70124 1.5340830 0.0061467
 6622.32452 1.5313230 0.0059104
 6628.94781 1.5319948 0.0056469
 6635.57109 1.5272061 0.0053596
 6642.20695 1.5165774 0.0050517
 6648.85479 1.5061557 0.0047178
 6655.50263 1.5005890 0.0043806
 6662.16305 1.4951456 0.0040323
 6668.82286 1.4774797 0.0036760
 6675.49586 1.4537467 0.0033712
 6682.16825 1.4309222 0.0030060
 6688.85262 1.4217218 0.0026423
 6695.53759 1.4196888 0.0022946
 6702.23454 1.4161886 0.0019469
 6708.93149 1.4186202 0.0016142
 6715.64102 1.4258461 0.0013411
 6722.36252 1.4291819 0.0010971
 6729.08403 1.4204338 0.0008884
 6735.81751 1.4100060 0.0007193
 6742.55159 1.4051173 0.0005887
 6749.29765 1.4037987 0.0004956
 6756.04371 1.4013944 0.0004375
 6762.80175 1.3957393 0.0004072
 6769.56038 1.3881592 0.0003941
 6776.33100 1.3796937 0.0003886
 6783.10161 1.3714635 0.0003847
 6789.88421 1.3662778 0.0003802
 6796.67938 1.3633087 0.0003789
 6803.47454 1.3600999 0.0003818
 6810.28169 1.3532486 0.0003848
 6817.08944 1.3440583 0.0003891
 6823.90916 1.3371022 0.0004016
 6830.74087 1.3324670 0.0004274
 6837.56059 1.3275586 0.0004724
 6844.40487 1.3197513 0.0005405
 6851.24855 1.3091441 0.0006336
 6858.10541 1.2965692 0.0007523
 6864.96167 1.2837161 0.0008952
 6871.81792 1.2779630 0.0010554
 6878.69934 1.2823236 0.0012276
 6885.58015 1.2898926 0.0014298
 6892.46096 1.2928509 0.0016396
 6899.35435 1.2915473 0.0018432
 6906.24774 1.2907798 0.0020448
 6913.15311 1.2932227 0.0022760
 6920.07105 1.2950670 0.0024687
 6926.98840 1.2938786 0.0026538
 6933.91892 1.2939793 0.0028294
 6940.86082 1.2964398 0.0029863
 6947.79134 1.2981514 0.0031355
 6954.74582 1.2982695 0.0032702
 6961.70030 1.2946101 0.0033891
 6968.65478 1.2845956 0.0034915
 6975.63381 1.2697448 0.0035605
 6982.60087 1.2588850 0.0036275
 6989.59188 1.2563159 0.0037053
 6996.58349 1.2594733 0.0037389
 7003.57510 1.2618179 0.0037580
 7010.57869 1.2649868 0.0037401
 7017.59425 1.2740951 0.0037318
 7024.61042 1.2875880 0.0037118
 7031.63856 1.2984842 0.0037007
 7038.66671 1.3019563 0.0036321
 7045.70683 1.3040831 0.0035804
 7052.74755 1.3041862 0.0035207
 7059.80025 1.3020210 0.0034262
 7066.86492 1.2996618 0.0033524
 7073.93020 1.2981716 0.0032874
 7081.00745 1.2967200 0.0032029
 7088.08471 1.2920939 0.0030874
 7095.17394 1.2830229 0.0029961
 7102.26377 1.2730072 0.0029139
 7109.37755 1.2653754 0.0027936
 7116.47936 1.2608774 0.0026986
 7123.60573 1.2566441 0.0026043
 7130.71951 1.2556345 0.0024970
 7137.85845 1.2565238 0.0024063
 7144.99680 1.2546371 0.0023187
 7152.13514 1.2442667 0.0022151
 7159.28606 1.2320756 0.0021429
 7166.44955 1.2276520 0.0020684
 7173.61245 1.2287627 0.0019819
 7180.78792 1.2248452 0.0019246
 7187.97537 1.2154416 0.0018503
 7195.16283 1.2075362 0.0017970
 7202.35028 1.2009450 0.0017486
 7209.56288 1.1924211 0.0016973
 7216.76231 1.1825680 0.0016579
 7223.98690 1.1739632 0.0016102
 7231.21148 1.1648425 0.0015858
 7238.43607 1.1531004 0.0015583
 7245.68461 1.1436065 0.0015303
 7252.92177 1.1391869 0.0015096
 7260.18288 1.1342667 0.0014819
 7267.44400 1.1272517 0.0014745
 7274.70512 1.1208951 0.0014532
 7281.97881 1.1175181 0.0014434
 7289.26449 1.1140307 0.0014350
 7296.55016 1.1067162 0.0014294
 7303.84781 1.0994357 0.0014255
 7311.15863 1.0951484 0.0014232
 7318.46886 1.0908077 0.0014143
 7325.77909 1.0853562 0.0014227
 7333.11387 1.0815804 0.0014159
 7340.44865 1.0796477 0.0014261
 7347.78344 1.0753510 0.0014203
 7355.13020 1.0716776 0.0014312
 7362.48953 1.0729606 0.0014257
 7369.84887 1.0770426 0.0014364
 7377.22079 1.0779444 0.0014303
 7384.60468 1.0756426 0.0014323
 7391.98857 1.0726711 0.0014333
 7399.38444 1.0691459 0.0014259
 7406.78091 1.0638407 0.0014346
 7414.18936 1.0559241 0.0014263
 7421.59721 1.0467103 0.0014344
 7429.01823 1.0393242 0.0014337
 7436.45124 1.0318109 0.0014247
 7443.88424 1.0227897 0.0014319
 7451.32922 1.0136997 0.0014225
 7458.78678 1.0050683 0.0014216
 7466.24433 0.9952834 0.0014201
 7473.71387 0.9834200 0.0014191
 7481.18341 0.9698684 0.0014101
 7488.66552 0.9552589 0.0014172
 7496.14763 0.9418926 0.0014087
 7503.65430 0.9306320 0.0014161
 7511.16037 0.9195040 0.0014163
 7518.66704 0.9135532 0.0014087
 7526.18568 0.9119400 0.0014097
 7533.71691 0.9098923 0.0014110
 7541.24813 0.9070153 0.0014129
 7548.79133 0.9062439 0.0014157
 7556.33453 0.9090291 0.0014187
 7563.89031 0.9138954 0.0014228
 7571.45807 0.9184633 0.0014279
 7579.02582 0.9229394 0.0014255
 7586.60616 0.9282347 0.0014398
 7594.19847 0.9345501 0.0014478
 7601.79078 0.9391478 0.0014480
 7609.39567 0.9449813 0.0014581
 7616.99996 0.9531969 0.0014766
 7624.61682 0.9594492 0.0014797
 7632.24627 0.9614753 0.0014934
 7639.87571 0.9642587 0.0015085
 7647.51713 0.9721872 0.0015150
 7655.17053 0.9819452 0.0015395
 7662.81195 0.9886014 0.0015586
 7670.47793 0.9889500 0.0015792
 7678.15648 0.9885325 0.0015908
 7685.83444 0.9917045 0.0016142
 7693.52497 0.9932027 0.0016464
 7701.21550 0.9913340 0.0016733
 7708.91801 0.9849008 0.0016905
 7716.62112 0.9741353 0.0017206
 7724.33620 0.9582612 0.0017525
 7732.06327 0.9403812 0.0017864
 7739.80291 0.9226651 0.0018096
 7747.54255 0.9040833 0.0018472
 7755.28219 0.8827714 0.0018941
 7763.04639 0.8597239 0.0019357
 7770.81059 0.8451328 0.0019795
 7778.57419 0.8445132 0.0020108
 7786.35096 0.8510686 0.0020585
 7794.13971 0.8587326 0.0021083
 7801.94044 0.8641884 0.0021602
 7809.74117 0.8706900 0.0022140
 7817.54190 0.8801762 0.0022697
 7825.36779 0.8886893 0.0023273
 7833.19307 0.8956570 0.0023687
 7841.03093 0.9022905 0.0024289
 7848.86820 0.9097787 0.0024905
 7856.71804 0.9168404 0.0025534
 7864.58045 0.9251564 0.0026175
 7872.43029 0.9333929 0.0026827
 7880.30529 0.9381772 0.0027488
 7888.19166 0.9411900 0.0028158
 7896.07863 0.9418170 0.0028835
 7903.97759 0.9403610 0.0029518
 7911.87654 0.9359075 0.0030206
 7919.80004 0.9236357 0.0030677
 7927.71157 0.9084326 0.0031367
 7935.63507 0.8927355 0.0032058
 7943.58313 0.8759295 0.0032749
 7951.51862 0.8573722 0.0033438
 7959.46668 0.8449063 0.0034126
 7967.42732 0.8445705 0.0034810
 7975.39993 0.8532185 0.0035488
 7983.37255 0.8640828 0.0036161
 7991.35714 0.8736706 0.0036678
 7999.35431 0.8843384 0.0037329
 8007.35148 0.8927743 0.0037967
 8015.36123 0.8918026 0.0038591
 8023.37038 0.8877549 0.0039199
 8031.39210 0.8826093 0.0039787
 8039.42641 0.8756029 0.0040609
 8047.47209 0.8710055 0.0041150
 8055.51837 0.8640656 0.0041481
 8063.57723 0.8626254 0.0041960
 8071.63549 0.8688310 0.0042408
 8079.70632 0.8729857 0.0042821
 8087.78914 0.8726411 0.0043196
 8095.88453 0.8743908 0.0043323
 8103.97992 0.8802609 0.0043608
 8112.07531 0.8849231 0.0043847
 8120.19466 0.8873864 0.0044040
 8128.31460 0.8922583 0.0044430
 8136.44653 0.8995616 0.0044287
 8144.57905 0.9033066 0.0044308
 8152.72295 0.8979225 0.0044271
 8160.88003 0.8883995 0.0044174
 8169.03651 0.8827187 0.0043773
 8177.20497 0.8720191 0.0043760
 8185.38660 0.8609410 0.0043456
 8193.56764 0.8567298 0.0043088
 8201.76065 0.8606665 0.0042405
 8209.96624 0.8764302 0.0041916
 8218.17243 0.8952014 0.0041551
 8226.38999 0.9139189 0.0040695
 8234.62014 0.9262993 0.0040057
 8242.85028 0.9288815 0.0039386
 8251.10498 0.9183836 0.0038431
 8259.34770 0.9019182 0.0037862
 8267.61438 0.8816358 0.0037126
 8275.88166 0.8543476 0.0036140
 8284.16091 0.8230271 0.0035400
 8292.44017 0.7973818 0.0034802
 8300.73140 0.7827002 0.0033853
 8309.03521 0.7789108 0.0033157
 8317.33902 0.7794570 0.0032403
 8325.66738 0.7775190 0.0031770
 8333.98377 0.7790178 0.0031178
 8342.32411 0.7832369 0.0030567
 8350.66506 0.7827908 0.0030078
 8359.01738 0.7839310 0.0029479
 8367.38287 0.7896200 0.0029243
 8375.74777 0.7931065 0.0028796
 8384.12525 0.7910206 0.0028587
 8392.50272 0.7887401 0.0028440
 8400.89218 0.7873822 0.0028390
 8409.29421 0.7847626 0.0028417
 8417.70821 0.7770801 0.0028534
 8426.12282 0.7642562 0.0028711
 8434.54881 0.7528598 0.0028992
 8442.98797 0.7484730 0.0029300
 8451.42653 0.7458962 0.0029542
 8459.88965 0.7425008 0.0030134
 8468.34079 0.7444980 0.0030474
 8476.81589 0.7444462 0.0031047
 8485.29158 0.7409309 0.0031568
 8493.76728 0.7455404 0.0032205
 8502.26693 0.7510532 0.0032767
 8510.76718 0.7502444 0.0033221
 8519.27941 0.7416826 0.0034011
 8527.80421 0.7280846 0.0034458
 8536.32842 0.7149923 0.0035102
 8544.86520 0.7042731 0.0035646
 8553.41456 0.6963283 0.0036238
 8561.96393 0.6905758 0.0036724
 8570.52526 0.6840720 0.0037231
 8579.09858 0.6806687 0.0037463
 8587.68447 0.6783704 0.0038018
 8596.27037 0.6838888 0.0038337
 8604.85626 0.6883965 0.0038371
 8613.46671 0.6872911 0.0038722
 8622.08914 0.6868636 0.0038612
 8630.69959 0.6922352 0.0038635
 8639.33459 0.6975201 0.0038582
 8647.98217 0.6921303 0.0038465
 8656.61717 0.6811733 0.0038283
 8665.27673 0.6772643 0.0038060
 8673.94827 0.6805607 0.0037760
 8682.61981 0.6848904 0.0037241
 8691.30392 0.6863392 0.0037266
 8700.00001 0.6878770 0.0037099
 8708.69671 0.6992934 0.0035979
 8717.40537 0.7057679 0.0035915
 8726.12602 0.7123525 0.0036302
 8734.84667 0.7206143 0.0036222
 8743.57989 0.7270323 0.0036023
 8752.32510 0.7216317 0.0035412
 8761.08287 0.7149711 0.0034185
 8769.84065 0.7151624 0.0033175
 8778.61041 0.7175578 0.0031856
 8787.39215 0.7238454 0.0030566
 8796.17448 0.7263765 0.0029736
 8804.98137 0.7264647 0.0029649
 8813.78766 0.7230563 0.0028582
 8822.59455 0.7171260 0.0027815
 8831.41342 0.7065994 0.0027160
 8840.25684 0.7018744 0.0026517
 8849.08829 0.7002597 0.0025888
 8857.94369 0.6996356 0.0025189
 8866.79969 0.6990477 0.0024595
 8875.66766 0.7018423 0.0024022
 8884.54822 0.7051950 0.0023617
 8893.42817 0.7109887 0.0023010
 8902.32071 0.7188727 0.0022507
 8911.22582 0.7204774 0.0022031
 8920.14231 0.7141223 0.0021587
 8929.05939 0.7061864 0.0021175
 8937.98906 0.7024848 0.0020797
 8946.93070 0.7042715 0.0020378
 8955.87234 0.7046281 0.0020074
 8964.82597 0.6991915 0.0019809
 8973.79216 0.6892682 0.0019585
 8982.77034 0.6746222 0.0019404
 8991.74912 0.6560540 0.0019267
 9000.73987 0.6418645 0.0019176
 9009.74260 0.6318939 0.0019130
 9018.75791 0.6201057 0.0019129
 9027.77262 0.6042607 0.0019081
 9036.80050 0.5911916 0.0019165
 9045.84037 0.5895301 0.0019292
 9054.89221 0.5925898 0.0019458
 9063.94405 0.5905852 0.0019662
 9073.00847 0.5846853 0.0019901
 9082.07229 0.5759963 0.0020173
 9091.16126 0.5665717 0.0020477
 9100.25023 0.5577151 0.0020809
 9109.35118 0.5502511 0.0021168
 9118.46471 0.5432136 0.0021475
 9127.57764 0.5339614 0.0021876
 9136.70315 0.5232981 0.0022297
 9145.84123 0.5175611 0.0022733
 9154.99129 0.5206532 0.0023183
 9164.15393 0.5247746 0.0023644
 9173.31597 0.5220879 0.0024113
 9182.49059 0.5129164 0.0024505
 9191.66521 0.5061120 0.0024981
 9200.86438 0.5007977 0.0025457
 9210.06355 0.4996613 0.0026082
 9219.27530 0.4961580 0.0026551
 9228.49903 0.4857308 0.0027011
 9237.72275 0.4758541 0.0027360
 9246.95846 0.4701666 0.0027790
 9256.20674 0.4713823 0.0028202
 9265.46700 0.4778500 0.0028592
 9274.72786 0.4850082 0.0028842
 9284.00070 0.4896168 0.0029172
 9293.28551 0.4897606 0.0029628
 9302.58290 0.4888211 0.0029889
 9311.88030 0.4886553 0.0029984
 9321.20224 0.4909065 0.0030157
 9330.52359 0.4996442 0.0030283
 9339.85812 0.5070239 0.0030372
 9349.19204 0.5084111 0.0030384
 9358.53854 0.5068022 0.0030340
 9367.89702 0.5032639 0.0030087
 9377.26808 0.5047850 0.0029913
 9386.65112 0.5079780 0.0029793
 9396.03415 0.5111867 0.0029316
 9405.42977 0.5160807 0.0028923
 9414.83736 0.5227740 0.0028460
 9424.24495 0.5223587 0.0027860
 9433.67709 0.5231897 0.0027264
 9443.10924 0.5249507 0.0026621
 9452.55396 0.5178183 0.0025775
 9462.01066 0.5103579 0.0025153
 9471.46736 0.5088106 0.0024286
 9480.94862 0.5108463 0.0023588
 9490.41790 0.5180661 0.0022835
 9499.91113 0.5275713 0.0022199
 9509.41694 0.5370042 0.0021489
 9518.92275 0.5448630 0.0021032
 9528.44114 0.5542131 0.0020589
 9537.97151 0.5695332 0.0020131
 9547.51385 0.5821810 0.0019941
 9557.05619 0.5931350 0.0019710
 9566.61112 0.6038911 0.0019763
 9576.17861 0.6125517 0.0019798
 9585.75809 0.6171463 0.0020041
 9595.33757 0.6197028 0.0020484
 9604.94100 0.6152239 0.0020998
 9614.54503 0.6038997 0.0021865
 9624.16164 0.5874997 0.0022754
 9633.78963 0.5647674 0.0024027
 9643.41821 0.5427138 0.0025308
 9653.05878 0.5298548 0.0026998
 9662.72449 0.5196604 0.0028648
 9672.37704 0.5123081 0.0030713
 9682.05473 0.5200568 0.0032684
 9691.73243 0.5300705 0.0035058
 9701.43468 0.5251327 0.0037265
 9711.13633 0.5229767 0.0039851
 9720.83859 0.5320563 0.0042138
 9730.56539 0.5338886 0.0044888
 9740.29160 0.5388686 0.0047198
 9750.03038 0.5467298 0.0049862
 9759.78175 0.5424589 0.0052187
 9769.54509 0.5410382 0.0054725
 9779.30843 0.5312787 0.0056757
 9789.09632 0.5176231 0.0059199
 9798.88422 0.4952509 0.0061339
 9808.68469 0.4658686 0.0062891
 9818.49714 0.4582428 0.0064630
 9828.30959 0.4804320 0.0065968
 9838.14659 0.5316280 0.0067253
 9847.98360 0.5774983 0.0068293
 9857.82060 0.5994591 0.0068737
 9867.68156 0.6135578 0.0069585
 9877.55570 0.6108088 0.0069949
 9887.42924 0.6007478 0.0069791
 9897.32793 0.5872921 0.0069761
 9907.21345 0.5561587 0.0069556
 9917.12412 0.5096802 0.0069236
 9927.04737 0.4587815 0.0068733
 9936.97001 0.4359742 0.0068099
 9946.90524 0.4316296 0.0067347
 9956.85244 0.4204903 0.0066248
 9966.81222 0.4116472 0.0065315
 9976.78398 0.4095203 0.0064643
 9986.75574 0.4177817 0.0063570
 9996.74008 0.4229003 0.0062237
 10006.74897 0.4421814 0.0061090
 10016.74528 0.4718321 0.0059920
 10026.76615 0.4995103 0.0058739
 10036.79960 0.5291066 0.0057554
 10046.83244 0.5417303 0.0056191
 10056.87846 0.5283374 0.0055016
 10066.93647 0.5101332 0.0053848
 10077.00644 0.4954774 0.0052689
 10087.08840 0.4799312 0.0051537
 10097.17036 0.4666194 0.0050394
 10107.26549 0.4466886 0.0049108
 10117.37140 0.4035290 0.0047984
 10127.49049 0.3661453 0.0046868
 10137.62276 0.3469355 0.0045758
 10147.75383 0.3409718 0.0044654
 10157.91005 0.3490603 0.0043557
 10168.06507 0.3578526 0.0042465
 10178.23327 0.3639308 0.0041379
 10188.41345 0.3796670 0.0040297
 10198.60680 0.3987422 0.0039221
 10208.79896 0.4180074 0.0038150
 10219.00429 0.4406594 0.0037085
 10229.23357 0.4580389 0.0036027
 10239.45088 0.4624251 0.0034888
 10249.69335 0.4571553 0.0033857
 10259.94659 0.4491342 0.0032842
 10270.21301 0.4395223 0.0031739
 10280.47943 0.4283157 0.0030775
 10290.75783 0.4149186 0.0029845
 10301.04820 0.4113052 0.0028954
 10311.35175 0.4123763 0.0028107
 10321.66728 0.4075024 0.0027310
 10331.98281 0.4055802 0.0026422
 10342.32230 0.4104580 0.0025747
 10352.66179 0.4198481 0.0025138
 10363.01445 0.4303347 0.0024600
 10373.37909 0.4343657 0.0024137
 10383.75571 0.4334313 0.0023645
 10394.14430 0.4384654 0.0023352
 10404.53290 0.4403969 0.0023146
 10414.93467 0.4330699 0.0023114
 10425.34842 0.4308749 0.0023010
 10435.77415 0.4301198 0.0023091
 10446.21185 0.4217161 0.0023266
 10456.66154 0.4128184 0.0023532
 10467.12440 0.4027575 0.0023808
 10477.58726 0.3900080 0.0024351
 10488.06210 0.3781359 0.0024840
 10498.54891 0.3660600 0.0025306
 10509.04771 0.3559012 0.0025873
 10519.55968 0.3533430 0.0026457
 10530.08363 0.3535284 0.0027111
 10540.60757 0.3480386 0.0027677
 10551.15548 0.3515871 0.0028121
 10561.70458 0.3605617 0.0028597
 10572.26446 0.3675352 0.0029144
 10582.83752 0.3766752 0.0029343
 10593.42256 0.3829397 0.0029536
 10604.02077 0.3846321 0.0029600
 10614.61779 0.3855163 0.0029507
 10625.23996 0.3830443 0.0029118
 10635.86213 0.3790267 0.0028811
 10646.49627 0.3777959 0.0028262
 10657.14240 0.3760859 0.0027453
 10667.80170 0.3767713 0.0026824
 10678.47178 0.3777898 0.0025971
 10689.14306 0.3714218 0.0025336
 10699.83949 0.3643671 0.0024773
 10710.54670 0.3675140 0.0024439
 10721.24194 0.3774143 0.0024323
 10731.97431 0.3848485 0.0024482
 10742.70667 0.3893783 0.0024898
 10753.45222 0.3932580 0.0025832
 10764.20854 0.3953741 0.0027098
 10774.96606 0.4039131 0.0029059
 10785.74634 0.4160651 0.0031400
 10796.52782 0.4272090 0.0034739
 10807.32247 0.4395002 0.0038644
 10818.12790 0.4422802 0.0043635
 10828.95849 0.4436511 0.0049412
 10839.77710 0.4661062 0.0056516
 10850.61967 0.5027370 0.0064432
 10861.47421 0.5284163 0.0074162
 10872.34193 0.5262368 0.0083911
 10883.20965 0.5321935 0.0095720
 10894.08815 0.5332199 0.0106895
 10904.98102 0.4906841 0.0119585
 10915.89666 0.4582112 0.0131888
 10926.80031 0.4650578 0.0141871
 10937.72912 0.5092179 0.0151432
 10948.66990 0.5876078 0.0157848
 10959.62386 0.6535574 0.0161652
 10970.58861 0.7023183 0.0160661
 10981.55455 0.7382783 0.0151929
 10992.53246 0.7150152 0.0127894
 11003.53434 0.7895090 0.0081955
 11014.53621 0.7399721 0.0083781
 11025.55126 0.6710494 0.0088713
 11036.57709 0.5766732 0.0101667
 11047.61610 0.4430917 0.0120627
 11058.65511 0.2820219 0.0151227
 11069.71927 0.0888075 0.0199478
