# SOURCE  = 'Quimby et al. 2018' /                                                
# OBJECT  = 'PTF12dam'           /                                                
# Z       =             0.107500 / wavelengths in OBSERVER FRAME                 
# NORM    =          6.93749E-16 / fluxes divided by norm                         
# CLIPPED =                    1 / galaxy emission lines removed                  
# SMOOTHED=                    1 / spectrum has been smoothed                     
# COLUMN01= 'Wavelength (Angstrom)' /                                             
# COLUMN02= 'Flux Density (erg/s/cm2/A)' /                                        
# COLUMN03= 'Flux Density Uncertainty (erg/s/cm2/A)' /                            
# END                                                                             
# 
# 
# 
# 
# 
# 
# 
# 
# 
# 
# Converted to Observer Frame using z=0.1075
 3879.42583 4.1452427 0.0585302
 3883.31392 4.0681934 0.0476339
 3887.18973 4.0164380 0.0328891
 3891.07812 3.9843190 0.0402405
 3894.97848 3.9478889 0.0376605
 3898.86657 3.9609528 0.0348279
 3902.76693 3.9712193 0.0387500
 3906.66760 3.9661334 0.0343583
 3910.58024 3.9381588 0.0319690
 3914.49288 3.9229963 0.0287254
 3918.40553 3.9127693 0.0241762
 3922.31847 3.9120331 0.0217455
 3926.24339 3.9208543 0.0214585
 3930.16831 3.9286182 0.0233255
 3934.10551 3.9361334 0.0218134
 3938.03043 3.9307239 0.0207255
 3941.96792 3.9309916 0.0212181
 3945.91740 3.9351473 0.0223187
 3949.85460 3.9481025 0.0240319
 3953.81635 3.9108520 0.0211149
 3957.76582 3.8897779 0.0218792
 3961.72758 3.8553221 0.0233952
 3965.68933 3.8297043 0.0247154
 3969.65108 3.8220115 0.0257397
 3973.62511 3.8268855 0.0254522
 3977.59914 3.8281436 0.0239631
 3981.57317 3.8343897 0.0225118
 3985.55948 3.8555589 0.0211111
 3989.54579 3.8559558 0.0209223
 3993.53210 3.8584151 0.0228242
 3997.51840 3.8785045 0.0210665
 4001.51699 3.8799660 0.0200003
 4005.52785 3.8908737 0.0195192
 4009.52644 3.9057717 0.0195399
 4013.53730 3.9180713 0.0195113
 4017.54816 3.9221871 0.0194742
 4021.57130 3.9414256 0.0195152
 4025.59445 3.9631321 0.0194211
 4029.61759 3.9865468 0.0194632
 4033.65300 4.0110054 0.0194174
 4037.67584 4.0368552 0.0193784
 4041.72354 4.0390096 0.0194335
 4045.75896 4.0737944 0.0193343
 4049.80665 4.0961294 0.0193960
 4053.85435 4.1188941 0.0193369
 4057.91402 4.1304102 0.0193556
 4061.97400 4.1304541 0.0193593
 4066.03397 4.1329136 0.0192648
 4070.09394 4.1329417 0.0192939
 4074.16589 4.1457443 0.0191621
 4078.23814 4.1413321 0.0191655
 4082.32267 4.1414762 0.0191125
 4086.40720 4.1315465 0.0190378
 4090.49143 4.1234941 0.0190364
 4094.57596 4.1066046 0.0199154
 4098.67276 4.1102958 0.0212991
 4102.76927 4.0809379 0.0188390
 4106.87835 4.0590286 0.0194493
 4110.98714 3.9954860 0.0209451
 4115.09622 3.9487867 0.0221762
 4119.20530 3.9456151 0.0229407
 4123.32636 3.9121189 0.0227309
 4127.44772 3.8364959 0.0216873
 4131.58106 3.8032265 0.0201287
 4135.71470 3.7521780 0.0189059
 4139.84804 3.7195942 0.0181665
 4143.99396 3.6895411 0.0201406
 4148.13957 3.6853223 0.0185193
 4152.28549 3.6985040 0.0174575
 4156.43110 3.7215853 0.0167597
 4160.58930 3.7318120 0.0166470
 4164.74719 3.7539997 0.0165229
 4168.91736 3.7792141 0.0163747
 4173.08783 3.8008430 0.0161697
 4177.25801 3.7999334 0.0160183
 4181.44075 3.7826073 0.0162366
 4185.61093 3.7759850 0.0169620
 4189.80565 3.7372525 0.0182959
 4193.98840 3.7134013 0.0160375
 4198.18313 3.6832051 0.0166755
 4202.39013 3.6515522 0.0173123
 4206.58516 3.6192458 0.0181049
 4210.79216 3.5753143 0.0184870
 4214.99917 3.4951532 0.0181111
 4219.21845 3.4380362 0.0181291
 4223.43803 3.3809750 0.0178738
 4227.66959 3.3247488 0.0154100
 4231.88887 3.2602010 0.0151834
 4236.12043 3.1911807 0.0176170
 4240.36426 3.1699255 0.0171734
 4244.59612 3.1852326 0.0169466
 4248.83996 3.1787908 0.0172637
 4253.09607 3.1625552 0.0165866
 4257.35219 3.1468797 0.0155846
 4261.60830 3.1485093 0.0145905
 4265.86442 3.1766701 0.0138425
 4270.13281 3.1642497 0.0138295
 4274.40120 3.1815603 0.0144928
 4278.68217 3.1878209 0.0137331
 4282.96284 3.1704021 0.0135269
 4287.24351 3.1672466 0.0135362
 4291.52418 3.2061615 0.0135107
 4295.81712 3.2285290 0.0138205
 4300.11007 3.2492182 0.0145024
 4304.41530 3.2426419 0.0135903
 4308.72052 3.2467008 0.0137468
 4313.02574 3.2888975 0.0144361
 4317.34295 3.3552432 0.0156623
 4321.66045 3.3901718 0.0166764
 4325.97795 3.4297626 0.0173729
 4330.30773 3.4432895 0.0166805
 4334.63751 3.4387288 0.0158558
 4338.97957 3.4159887 0.0149827
 4343.30935 3.4186306 0.0141421
 4347.65140 3.4246733 0.0137056
 4352.00544 3.4020889 0.0149163
 4356.35977 3.3984754 0.0140409
 4360.71411 3.3992641 0.0134693
 4365.06844 3.4138100 0.0134481
 4369.43505 3.4123614 0.0134308
 4373.80137 3.3978403 0.0133557
 4378.18026 3.3516531 0.0132474
 4382.55915 3.3155379 0.0131482
 4386.95001 3.3052969 0.0130626
 4391.32890 3.2529404 0.0129833
 4395.72007 3.2249465 0.0129305
 4400.12322 3.1972463 0.0126297
 4404.51438 3.1702936 0.0128131
 4408.91783 3.1473925 0.0127736
 4413.33325 3.1250119 0.0127314
 4417.74897 3.1255214 0.0127010
 4422.16470 3.1233037 0.0124231
 4426.59240 3.1086979 0.0124714
 4431.00812 3.1157622 0.0126849
 4435.44810 3.1432176 0.0127112
 4439.87610 3.1567030 0.0125089
 4444.31607 3.1713216 0.0125617
 4448.76863 3.1868782 0.0125399
 4453.20861 3.2004135 0.0127889
 4457.66116 3.2007320 0.0128054
 4462.12569 3.2069311 0.0126018
 4466.59053 3.2117090 0.0126482
 4471.05506 3.2268238 0.0126299
 4475.53217 3.2396133 0.0129363
 4479.99670 3.2540026 0.0127420
 4484.48579 3.2805245 0.0128097
 4488.96290 3.3019221 0.0128036
 4493.45199 3.3311710 0.0130998
 4497.95335 3.3486235 0.0128989
 4502.44274 3.3662219 0.0129302
 4506.95639 3.3623655 0.0129208
 4511.45775 3.3525233 0.0128871
 4515.97169 3.3429463 0.0128616
 4520.48534 3.3194125 0.0128115
 4525.01126 3.3081319 0.0127910
 4529.52490 3.3101826 0.0126972
 4534.06340 3.2991364 0.0128012
 4538.58932 3.3092394 0.0130368
 4543.13979 3.3009396 0.0136942
 4547.67799 3.2921894 0.0126810
 4552.22847 3.2815080 0.0130603
 4556.77924 3.2512622 0.0137635
 4561.32972 3.2261019 0.0146429
 4565.89247 3.1559319 0.0151563
 4570.46750 3.0817931 0.0157625
 4575.03026 3.0842433 0.0150632
 4579.60529 3.0803232 0.0140815
 4584.19260 3.0625608 0.0128469
 4588.76763 3.0368552 0.0122086
 4593.36721 3.0104160 0.0120494
 4597.95452 2.9952686 0.0128613
 4602.55411 2.9839766 0.0120116
 4607.15369 2.9801052 0.0114438
 4611.76556 2.9695632 0.0112773
 4616.37742 2.9582345 0.0112166
 4620.98928 2.9703646 0.0114444
 4625.61343 2.9340377 0.0112651
 4630.23757 2.9289749 0.0113013
 4634.87398 2.9368534 0.0112445
 4639.49813 2.9147694 0.0114139
 4644.14682 2.8815167 0.0111923
 4648.78324 2.8607202 0.0111662
 4653.43164 2.8395319 0.0112898
 4658.09261 2.8214993 0.0110657
 4662.75358 2.8160682 0.0110326
 4667.41456 2.8030000 0.0111501
 4672.07553 2.7769978 0.0109361
 4676.74848 2.7658169 0.0108410
 4681.43401 2.7401180 0.0108458
 4686.10726 2.7133477 0.0107574
 4690.79279 2.7032964 0.0107750
 4695.49030 2.7045982 0.0105366
 4700.18811 2.7075267 0.0107388
 4704.88591 2.7203920 0.0108718
 4709.58342 2.7338181 0.0113758
 4714.29350 2.7698178 0.0124060
 4719.01586 2.8159351 0.0113719
 4723.73793 2.8374145 0.0115205
 4728.46029 2.8394530 0.0125868
 4733.18235 2.8526258 0.0135784
 4737.91699 2.8965373 0.0141738
 4742.65133 2.9169354 0.0147445
 4747.39824 2.9111791 0.0136778
 4752.14486 2.9183519 0.0127215
 4756.90405 2.9265556 0.0122822
 4761.65067 2.9352837 0.0114132
 4766.42214 2.9481907 0.0129555
 4771.18104 2.9464746 0.0119410
 4775.95251 2.9371762 0.0112123
 4780.73596 2.9139044 0.0109224
 4785.51971 2.9117846 0.0107041
 4790.30316 2.8930953 0.0106703
 4795.08661 2.8818297 0.0108367
 4799.88263 2.8526211 0.0106097
 4804.69064 2.8154235 0.0105590
 4809.48636 2.7847633 0.0105317
 4814.30695 2.7687256 0.0104770
 4819.11495 2.7509456 0.0104643
 4823.93523 2.7287626 0.0104333
 4828.75582 2.7035747 0.0107966
 4833.58837 2.6806543 0.0115598
 4838.42093 2.6743255 0.0105135
 4843.26577 2.6470766 0.0106188
 4848.09863 2.6332047 0.0112479
 4852.95575 2.5963013 0.0117822
 4857.80058 2.5462189 0.0122093
 4862.65770 2.5480008 0.0122162
 4867.52709 2.5126960 0.0115737
 4872.39648 2.5101435 0.0111396
 4877.26588 2.4709325 0.0103980
 4882.14784 2.4668925 0.0100543
 4887.02951 2.4414382 0.0101038
 4891.91118 2.4317458 0.0103175
 4896.80513 2.4190352 0.0098416
 4901.69908 2.3810558 0.0095105
 4906.60530 2.3611512 0.0096201
 4911.51153 2.3564711 0.0094291
 4916.41775 2.3442891 0.0095542
 4921.33626 2.3394120 0.0093585
 4926.25476 2.3294256 0.0093271
 4931.18554 2.3020761 0.0092895
 4936.11632 2.3012376 0.0092549
 4941.05908 2.2873168 0.0092395
 4945.98986 2.2996218 0.0092113
 4950.94519 2.2922554 0.0093409
 4955.90053 2.2931242 0.0091986
 4960.85586 2.3137546 0.0093166
 4965.81120 2.3568871 0.0091749
 4970.77851 2.3858602 0.0091784
 4975.74612 2.3945992 0.0092090
 4980.72601 2.3776577 0.0092400
 4985.70590 2.3917208 0.0092165
 4990.68580 2.3920386 0.0095420
 4995.67766 2.3919599 0.0100984
 5000.68211 2.3879671 0.0096726
 5005.67428 2.3849826 0.0096072
 5010.69070 2.3596179 0.0101834
 5015.69515 2.3214774 0.0109085
 5020.71187 2.3268414 0.0115248
 5025.72859 2.3017001 0.0117392
 5030.75699 2.2666688 0.0112693
 5035.78599 2.2457926 0.0105756
 5040.82757 2.2326782 0.0099542
 5045.86855 2.2434652 0.0095496
 5050.90953 2.2755728 0.0096016
 5055.96308 2.3155966 0.0100808
 5061.01664 2.3427212 0.0095186
 5066.08217 2.3593962 0.0093159
 5071.14771 2.3721759 0.0091810
 5076.21324 2.3849356 0.0092898
 5081.29135 2.3662047 0.0090914
 5086.38144 2.3299322 0.0091723
 5091.45955 2.2755821 0.0089698
 5096.56221 2.2434320 0.0090202
 5101.65230 2.2054548 0.0087820
 5106.75497 2.1496582 0.0087142
 5111.85704 2.1035898 0.0086419
 5116.97168 2.0659914 0.0085785
 5122.08692 2.0380802 0.0085182
 5127.21354 2.0089550 0.0084745
 5132.34076 1.9952798 0.0084320
 5137.47996 1.9876409 0.0084045
 5142.60718 1.9902513 0.0083859
 5147.75836 1.9897738 0.0083902
 5152.89756 1.9968303 0.0082954
 5158.04934 2.0058696 0.0084093
 5163.21309 2.0252018 0.0084501
 5168.37684 2.0417123 0.0084314
 5173.54060 2.0557432 0.0084755
 5178.71693 2.0616677 0.0083533
 5183.89266 2.0677686 0.0085039
 5189.08097 2.0539956 0.0083727
 5194.26928 2.0430648 0.0085034
 5199.47016 2.0295947 0.0083567
 5204.67045 2.0260365 0.0083387
 5209.87134 2.0140355 0.0084550
 5215.08420 2.0211077 0.0083286
 5220.29707 2.0178134 0.0084804
 5225.52191 2.0305552 0.0083731
 5230.74735 2.0522673 0.0084240
 5235.97219 2.0620637 0.0084230
 5241.20961 2.0652952 0.0084597
 5246.44703 2.0652397 0.0085588
 5251.69702 2.0524509 0.0084657
 5256.94642 2.0392201 0.0084356
 5262.20840 2.0361161 0.0084597
 5267.47037 2.0383201 0.0084443
 5272.73234 2.0483425 0.0084634
 5278.00630 2.0429554 0.0085930
 5283.29283 2.0524936 0.0090976
 5288.56738 2.0470781 0.0097736
 5293.86589 2.0553267 0.0091366
 5299.15241 2.0513108 0.0091967
 5304.45092 2.0570226 0.0096447
 5309.76201 2.0500963 0.0106481
 5315.07309 2.0416384 0.0112283
 5320.38417 2.0145535 0.0113719
 5325.70724 2.0130775 0.0107665
 5331.03030 2.0260158 0.0099233
 5336.36594 2.0335293 0.0092544
 5341.70158 2.0248270 0.0089143
 5347.03722 2.0089955 0.0102327
 5352.38484 2.0083244 0.0091388
 5357.74503 2.0108209 0.0086870
 5363.09265 2.0082750 0.0082867
 5368.46482 2.0143664 0.0083167
 5373.82502 2.0206869 0.0083977
 5379.19719 2.0131471 0.0083397
 5384.58194 2.0043595 0.0083303
 5389.96669 2.0023758 0.0084671
 5395.36341 2.0050058 0.0083269
 5400.74816 2.0190752 0.0083222
 5406.15687 2.0074160 0.0084501
 5411.56617 2.0041356 0.0083178
 5416.97548 2.0034914 0.0083309
 5422.38419 2.0018954 0.0082814
 5427.81805 1.9915322 0.0082762
 5433.23933 1.9727859 0.0082147
 5438.67319 1.9571929 0.0081861
 5444.11903 1.9351869 0.0081181
 5449.55289 1.8955399 0.0080922
 5455.01070 1.8674737 0.0080427
 5460.45654 1.8443882 0.0078734
 5465.92693 1.8157401 0.0079583
 5471.38535 1.7923485 0.0078920
 5476.86832 1.7634701 0.0078843
 5482.33871 1.7422520 0.0077228
 5487.82108 1.7255797 0.0078125
 5493.31603 1.7148310 0.0077856
 5498.79900 1.7157615 0.0076717
 5504.30593 1.7216893 0.0076886
 5509.80087 1.7354068 0.0077834
 5515.32038 1.7462434 0.0078614
 5520.82790 1.7684568 0.0077513
 5526.34740 1.7938578 0.0078048
 5531.87889 1.8086107 0.0079208
 5537.41097 1.8150600 0.0078535
 5542.95502 1.8246022 0.0078607
 5548.48651 1.8226355 0.0078672
 5554.04314 1.8263023 0.0078925
 5559.59918 1.8324701 0.0078773
 5565.15581 1.8341593 0.0079132
 5570.72383 1.8513542 0.0079005
 5576.29244 1.8660026 0.0079343
 5581.87363 1.8836190 0.0079501
 5587.45422 1.8986366 0.0083424
 5593.03541 1.9091495 0.0082438
 5598.62798 1.9206433 0.0084344
 5604.23373 1.9317670 0.0092423
 5609.83887 1.9484469 0.0093401
 5615.44462 1.9578633 0.0099214
 5621.06174 1.9780512 0.0107372
 5626.67947 1.9986969 0.0123431
 5632.30977 2.0060167 0.0151929
 5637.93947 2.0556676 0.0113036
 5643.58175 2.0932705 0.0110295
 5649.22343 2.0971916 0.0106485
 5654.87828 2.1068938 0.0151853
 5660.53254 2.0986788 0.0117770
 5666.18680 2.0939605 0.0102885
 5671.85363 2.0758450 0.0103004
 5677.53244 2.0632660 0.0093468
 5683.21185 2.0476816 0.0088209
 5688.89066 2.0321300 0.0083917
 5694.58205 2.0176575 0.0083753
 5700.27284 2.0014267 0.0089372
 5705.97621 1.9832038 0.0084609
 5711.68017 1.9686719 0.0085003
 5717.39552 1.9587270 0.0084139
 5723.11146 1.9426996 0.0098972
 5728.83938 1.9370581 0.0099742
 5734.55533 1.9243511 0.0100563
 5740.29523 1.9191986 0.0099510
 5746.03573 1.9106973 0.0100745
 5751.78820 1.9052997 0.0101542
 5757.54068 1.8969877 0.0102410
 5763.29316 1.8835562 0.0103310
 5769.05821 1.8662891 0.0105668
 5774.82327 1.8628525 0.0106161
 5780.60030 1.8499818 0.0104849
 5786.37733 1.8236949 0.0105688
 5792.16634 1.8103137 0.0106238
 5797.96793 1.7844082 0.0106595
 5803.75754 1.7754289 0.0107225
 5809.55912 1.7688180 0.0107310
 5815.37329 1.7645613 0.0106747
 5821.18685 1.7754204 0.0107662
 5827.01299 1.7800096 0.0104555
 5832.83914 1.7748762 0.0102996
 5838.67786 1.7583617 0.0101127
 5844.50400 1.7481408 0.0099484
 5850.35470 1.7432784 0.0097970
 5856.20479 1.7337152 0.0096844
 5862.06807 1.7229021 0.0096013
 5867.93074 1.7195700 0.0095055
 5873.79402 1.7142804 0.0094184
 5879.66927 1.7061907 0.0091547
 5885.54452 1.6902925 0.0090615
 5891.43175 1.6680440 0.0090016
 5897.31898 1.6579567 0.0089366
 5903.21879 1.6533278 0.0088671
 5909.13117 1.6405200 0.0090999
 5915.04296 1.6484927 0.0090873
 5920.95475 1.6534432 0.0092426
 5926.86713 1.6561331 0.0096785
 5932.80347 1.6611689 0.0103660
 5938.72783 1.6679758 0.0112282
 5944.66417 1.6807263 0.0119031
 5950.61309 1.6954782 0.0125775
 5956.56201 1.7103752 0.0129732
 5962.52291 1.7515229 0.0128524
 5968.48380 1.8112526 0.0128795
 5974.45727 1.8620189 0.0125183
 5980.43075 1.9048105 0.0120754
 5986.40422 1.9460114 0.0116879
 5992.40165 1.9662105 0.0116701
 5998.38770 1.9917818 0.0113539
 6004.38513 1.9814683 0.0111078
 6010.39573 1.9638001 0.0108766
 6016.40574 1.9474648 0.0106107
 6022.41574 1.9124306 0.0103476
 6028.45030 1.8726898 0.0100620
 6034.47289 1.8222942 0.0097920
 6040.50745 1.7842929 0.0094948
 6046.55459 1.7213050 0.0092393
 6052.58915 1.6736041 0.0090690
 6058.64826 1.6242651 0.0095579
 6064.70738 1.5837353 0.0089056
 6070.76649 1.5450963 0.0090152
 6076.83819 1.5136752 0.0096670
 6082.92186 1.4844652 0.0102513
 6089.00553 1.4661463 0.0100384
 6095.08920 1.4552127 0.0092055
 6101.18545 1.4391539 0.0083287
 6107.29367 1.4422203 0.0080222
 6113.40190 1.4479692 0.0096504
 6119.51013 1.4690171 0.0083409
 6125.63033 1.4861555 0.0090154
 6131.75113 1.5095216 0.0103072
 6137.88392 1.5205781 0.0115819
 6144.02868 1.5272768 0.0117780
 6150.17403 1.5254145 0.0111183
 6156.31879 1.5269685 0.0098190
 6162.47613 1.5333273 0.0117647
 6168.63347 1.5415847 0.0098032
 6174.80278 1.5638896 0.0090988
 6180.98467 1.5896591 0.0087446
 6187.16656 1.6156178 0.0086691
 6193.36103 1.6318607 0.0083829
 6199.54292 1.6511974 0.0082571
 6205.74937 1.6617652 0.0083237
 6211.95522 1.6767246 0.0083144
 6218.16166 1.6912700 0.0082855
 6224.38069 1.6900064 0.0082938
 6230.61109 1.6890861 0.0082900
 6236.84209 1.6840069 0.0082608
 6243.07309 1.6813915 0.0082257
 6249.31607 1.6698235 0.0080539
 6255.57163 1.6652285 0.0081442
 6261.82719 1.6604326 0.0080941
 6268.08274 1.6572729 0.0080598
 6274.35028 1.6548072 0.0079969
 6280.63039 1.6415662 0.0079209
 6286.91050 1.6247073 0.0078354
 6293.20259 1.6150434 0.0077351
 6299.49468 1.6011275 0.0075033
 6305.78677 1.5918756 0.0074265
 6312.10401 1.5796098 0.0075005
 6318.40808 1.5749921 0.0074558
 6324.72533 1.5720860 0.0074114
 6331.05395 1.5679190 0.0073769
 6337.38317 1.5639771 0.0072222
 6343.72437 1.5581772 0.0071900
 6350.06557 1.5502582 0.0071604
 6356.41935 1.5401726 0.0071309
 6362.77252 1.5367811 0.0072129
 6369.13888 1.5260930 0.0071843
 6375.50463 1.5240070 0.0070446
 6381.88237 1.5164872 0.0070202
 6388.26070 1.5072631 0.0069943
 6394.65101 1.5037596 0.0069742
 6401.05390 1.4984040 0.0070617
 6407.44421 1.4906449 0.0069276
 6413.85907 1.4865146 0.0069058
 6420.27394 1.4858277 0.0068831
 6426.68880 1.4817450 0.0068637
 6433.11565 1.4720997 0.0068427
 6439.55507 1.4630702 0.0068117
 6445.99449 1.4540269 0.0067706
 6452.43391 1.4434640 0.0067347
 6458.88590 1.4325368 0.0067020
 6465.34988 1.4291193 0.0065696
 6471.81385 1.4256200 0.0067575
 6478.28981 1.4219540 0.0071352
 6484.76636 1.4097230 0.0066986
 6491.25429 1.3974065 0.0068735
 6497.74282 1.3851966 0.0073369
 6504.24393 1.3797268 0.0078467
 6510.74444 1.3645585 0.0078941
 6517.25752 1.3527071 0.0073480
 6523.77061 1.3502574 0.0068556
 6530.29567 1.3422638 0.0066240
 6536.83331 1.3378981 0.0069672
 6543.37095 1.3321131 0.0063492
 6549.90860 1.3283052 0.0061790
 6556.45821 1.3283139 0.0062491
 6563.02041 1.3262115 0.0062185
 6569.58261 1.3180355 0.0060829
 6576.15678 1.3152826 0.0060568
 6582.71897 1.3116345 0.0061338
 6589.30573 1.3113552 0.0060131
 6595.90445 1.3092753 0.0060018
 6602.49121 1.3108706 0.0059852
 6609.10191 1.3074627 0.0060645
 6615.70124 1.3020580 0.0059504
 6622.32452 1.2914554 0.0059284
 6628.94781 1.2823898 0.0058992
 6635.57109 1.2748115 0.0058626
 6642.20695 1.2670634 0.0058440
 6648.85479 1.2587878 0.0058252
 6655.50263 1.2534318 0.0058016
 6662.16305 1.2492276 0.0057743
 6668.82286 1.2411085 0.0057474
 6675.49586 1.2326548 0.0056379
 6682.16825 1.2247683 0.0057009
 6688.85262 1.2209750 0.0056815
 6695.53759 1.2132727 0.0055675
 6702.23454 1.2038893 0.0056192
 6708.93149 1.1901304 0.0055879
 6715.64102 1.1793565 0.0054685
 6722.36252 1.1678377 0.0055144
 6729.08403 1.1601965 0.0054899
 6735.81751 1.1522541 0.0053837
 6742.55159 1.1568093 0.0054388
 6749.29765 1.1527328 0.0053476
 6756.04371 1.1485564 0.0053283
 6762.80175 1.1438420 0.0053929
 6769.56038 1.1402098 0.0052930
 6776.33100 1.1409974 0.0052715
 6783.10161 1.1421907 0.0053441
 6789.88421 1.1466914 0.0052664
 6796.67938 1.1532177 0.0052685
 6803.47454 1.1645808 0.0052808
 6810.28169 1.1634080 0.0052670
 6817.08944 1.1580548 0.0053425
 6823.90916 1.1518260 0.0052444
 6830.74087 1.1494167 0.0052241
 6837.56059 1.1454303 0.0052154
 6844.40487 1.1393572 0.0051997
 6851.24855 1.1379659 0.0051150
 6858.10541 1.1388965 0.0051768
 6864.96167 1.1339247 0.0051704
 6871.81792 1.1361380 0.0051663
 6878.69934 1.1341017 0.0051646
 6885.58015 1.1381810 0.0050927
 6892.46096 1.1397866 0.0051713
 6899.35435 1.1401384 0.0050994
 6906.24774 1.1321682 0.0051736
 6913.15311 1.1251024 0.0051555
 6920.07105 1.1166519 0.0051664
 6926.98840 1.1044656 0.0051223
 6933.91892 1.1038034 0.0050852
 6940.86082 1.1026726 0.0052177
 6947.79134 1.1001168 0.0052337
 6954.74582 1.0983089 0.0052894
 6961.70030 1.1007620 0.0052567
 6968.65478 1.0966841 0.0053682
 6975.63381 1.0959886 0.0052839
 6982.60087 1.0938734 0.0052666
 6989.59188 1.0925492 0.0051784
 6996.58349 1.0963236 0.0050797
 7003.57510 1.0962435 0.0049766
 7010.57869 1.0966238 0.0049852
 7017.59425 1.1005347 0.0049782
 7024.61042 1.1056376 0.0049498
 7031.63856 1.1049048 0.0049815
 7038.66671 1.1045420 0.0050169
 7045.70683 1.1052665 0.0050415
 7052.74755 1.1012830 0.0050339
 7059.80025 1.0970792 0.0049886
 7066.86492 1.0919983 0.0049475
 7073.93020 1.0912441 0.0049080
 7081.00745 1.0856332 0.0049143
 7088.08471 1.0894687 0.0049054
 7095.17394 1.0814232 0.0049085
 7102.26377 1.0794003 0.0048999
 7109.37755 1.0766339 0.0048221
 7116.47936 1.0768977 0.0048772
 7123.60573 1.0784831 0.0048025
 7130.71951 1.0766392 0.0048737
 7137.85845 1.0772488 0.0047971
 7144.99680 1.0731936 0.0048649
 7152.13514 1.0685402 0.0047990
 7159.28606 1.0591270 0.0047989
 7166.44955 1.0535281 0.0047902
 7173.61245 1.0460188 0.0047829
 7180.78792 1.0453959 0.0048184
 7187.97537 1.0415940 0.0047531
 7195.16283 1.0350076 0.0048488
 7202.35028 1.0310112 0.0048203
 7209.56288 1.0213600 0.0048106
 7216.76231 1.0161250 0.0047672
 7223.98690 1.0075438 0.0046903
 7231.21148 0.9989134 0.0046156
 7238.43607 0.9941548 0.0045685
 7245.68461 0.9902917 0.0045494
 7252.92177 0.9839416 0.0045470
 7260.18288 0.9874446 0.0045252
 7267.44400 0.9849983 0.0044590
 7274.70512 0.9794653 0.0045121
 7281.97881 0.9782014 0.0044955
 7289.26449 0.9754929 0.0046156
 7296.55016 0.9727053 0.0045930
 7303.84781 0.9750038 0.0045061
 7311.15863 0.9710486 0.0048186
 7318.46886 0.9690385 0.0051229
 7325.77909 0.9711363 0.0051524
 7333.11387 0.9686829 0.0050757
 7340.44865 0.9707271 0.0047606
 7347.78344 0.9715729 0.0044562
 7355.13020 0.9724443 0.0045355
 7362.48953 0.9703239 0.0045945
 7369.84887 0.9711940 0.0043475
 7377.22079 0.9704863 0.0043875
 7384.60468 0.9692861 0.0044286
 7391.98857 0.9634321 0.0044644
 7399.38444 0.9576020 0.0044552
 7406.78091 0.9533102 0.0044073
 7414.18936 0.9471219 0.0043203
 7421.59721 0.9361243 0.0042460
 7429.01823 0.9267744 0.0042329
 7436.45124 0.9196926 0.0042114
 7443.88424 0.9158474 0.0041826
 7451.32922 0.9106039 0.0041076
 7458.78678 0.9032348 0.0041435
 7466.24433 0.8940571 0.0041250
 7473.71387 0.8865253 0.0041023
 7481.18341 0.8788388 0.0040864
 7488.66552 0.8711360 0.0040606
 7496.14763 0.8692403 0.0040428
 7503.65430 0.8603776 0.0039802
 7511.16037 0.8587548 0.0040220
 7518.66704 0.8548585 0.0040090
 7526.18568 0.8506299 0.0040031
 7533.71691 0.8468291 0.0039413
 7541.24813 0.8470205 0.0039363
 7548.79133 0.8447701 0.0040024
 7556.33453 0.8438655 0.0039730
 7563.89031 0.8424553 0.0039999
 7571.45807 0.8421814 0.0040794
 7579.02582 0.8436245 0.0041156
 7586.60616 0.8428093 0.0040944
 7594.19847 0.8402033 0.0043591
 7601.79078 0.8383684 0.0047384
 7609.39567 0.8426729 0.0051066
 7616.99996 0.8445296 0.0053932
 7624.61682 0.8443134 0.0052997
 7632.24627 0.8431704 0.0051222
 7639.87571 0.8407632 0.0048922
 7647.51713 0.8346581 0.0046593
 7655.17053 0.8310027 0.0044001
 7662.81195 0.8258756 0.0042034
 7670.47793 0.8228790 0.0040824
 7678.15648 0.8195701 0.0040376
 7685.83444 0.8184311 0.0040118
 7693.52497 0.8129448 0.0039347
 7701.21550 0.8088568 0.0038891
 7708.91801 0.7994491 0.0039296
 7716.62112 0.7944737 0.0039231
 7724.33620 0.7884200 0.0039182
 7732.06327 0.7770827 0.0038508
 7739.80291 0.7647578 0.0038036
 7747.54255 0.7498400 0.0037546
 7755.28219 0.7429329 0.0037100
 7763.04639 0.7384923 0.0037447
 7770.81059 0.7390731 0.0037407
 7778.57419 0.7473723 0.0036951
 7786.35096 0.7641406 0.0037144
 7794.13971 0.7759911 0.0037408
 7801.94044 0.7863891 0.0037651
 7809.74117 0.7960218 0.0037808
 7817.54190 0.8003079 0.0037989
 7825.36779 0.8095990 0.0038077
 7833.19307 0.8160027 0.0038653
 7841.03093 0.8206552 0.0038342
 7848.86820 0.8313106 0.0041083
 7856.71804 0.8404129 0.0045806
 7864.58045 0.8455616 0.0040941
 7872.43029 0.8545716 0.0044712
 7880.30529 0.8607436 0.0049946
 7888.19166 0.8670242 0.0054514
 7896.07863 0.8744583 0.0051782
 7903.97759 0.8853828 0.0046967
 7911.87654 0.8829919 0.0041827
 7919.80004 0.8776785 0.0047438
 7927.71157 0.8635030 0.0042295
 7935.63507 0.8443785 0.0039403
 7943.58313 0.8258219 0.0038616
 7951.51862 0.8070030 0.0038459
 7959.46668 0.8000905 0.0038356
 7967.42732 0.8043807 0.0038491
 7975.39993 0.8317875 0.0038798
 7983.37255 0.8481277 0.0039464
 7991.35714 0.8575620 0.0039972
 7999.35431 0.8642408 0.0040440
 8007.35148 0.8676082 0.0041959
 8015.36123 0.8645568 0.0045224
 8023.37038 0.8495636 0.0042989
 8031.39210 0.8438278 0.0046060
 8039.42641 0.8503315 0.0050058
 8047.47209 0.8705831 0.0052692
 8055.51837 0.8751108 0.0052521
 8063.57723 0.8722072 0.0049404
 8071.63549 0.8617912 0.0045491
 8079.70632 0.8543844 0.0043623
 8087.78914 0.8515430 0.0044953
 8095.88453 0.8503256 0.0041930
 8103.97992 0.8471299 0.0041442
 8112.07531 0.8514254 0.0041624
 8120.19466 0.8492094 0.0041483
 8128.31460 0.8492802 0.0041244
 8136.44653 0.8457468 0.0040774
 8144.57905 0.8337815 0.0040626
 8152.72295 0.8248892 0.0040334
 8160.88003 0.8212528 0.0039924
 8169.03651 0.8160955 0.0039653
 8177.20497 0.8160698 0.0038710
 8185.38660 0.8150125 0.0038493
 8193.56764 0.8101923 0.0039927
 8201.76065 0.8078198 0.0043208
 8209.96624 0.8035052 0.0049246
 8218.17243 0.7992449 0.0048774
 8226.38999 0.7930362 0.0052360
 8234.62014 0.7856342 0.0060678
 8242.85028 0.7767806 0.0067669
 8251.10498 0.7701892 0.0061490
 8259.34770 0.7622021 0.0053421
 8267.61438 0.7593964 0.0048981
 8275.88166 0.7585906 0.0051766
 8284.16091 0.7590799 0.0043018
 8292.44017 0.7586536 0.0039050
 8300.73140 0.7562776 0.0037049
 8309.03521 0.7525769 0.0036752
 8317.33902 0.7489388 0.0036448
 8325.66738 0.7441816 0.0036622
 8333.98377 0.7388569 0.0036708
 8342.32411 0.7352250 0.0037055
 8350.66506 0.7320846 0.0036885
 8359.01738 0.7307948 0.0036485
 8367.38287 0.7274253 0.0036357
 8375.74777 0.7241546 0.0037452
 8384.12525 0.7185519 0.0037512
 8392.50272 0.7104978 0.0038746
 8400.89218 0.7027610 0.0043966
 8409.29421 0.6957084 0.0052085
 8417.70821 0.6893893 0.0061655
 8426.12282 0.6848521 0.0073068
 8434.54881 0.6835256 0.0080317
 8442.98797 0.6837494 0.0080942
 8451.42653 0.6863056 0.0078195
 8459.88965 0.6761683 0.0073156
 8468.34079 0.6697784 0.0065006
 8476.81589 0.6699209 0.0056638
 8485.29158 0.6649992 0.0049049
 8493.76728 0.6560887 0.0044069
 8502.26693 0.6493210 0.0040724
 8510.76718 0.6470100 0.0038251
 8519.27941 0.6447332 0.0036262
 8527.80421 0.6408943 0.0035945
 8536.32842 0.6365317 0.0036726
 8544.86520 0.6363718 0.0037048
 8553.41456 0.6351309 0.0036164
 8561.96393 0.6370666 0.0035806
 8570.52526 0.6360682 0.0036231
 8579.09858 0.6395353 0.0036391
 8587.68447 0.6466519 0.0036555
 8596.27037 0.6491277 0.0036678
 8604.85626 0.6530194 0.0036819
 8613.46671 0.6539356 0.0036401
 8622.08914 0.6583179 0.0036652
 8630.69959 0.6606097 0.0036727
 8639.33459 0.6617786 0.0036826
 8647.98217 0.6654726 0.0037108
 8656.61717 0.6735243 0.0037424
 8665.27673 0.6726575 0.0036929
 8673.94827 0.6776307 0.0037653
 8682.61981 0.6849044 0.0037583
 8691.30392 0.6857493 0.0037707
 8700.00001 0.6918550 0.0038691
 8708.69671 0.6921846 0.0039144
 8717.40537 0.6987132 0.0038435
 8726.12602 0.7016942 0.0039076
 8734.84667 0.7034408 0.0038773
 8743.57989 0.6959693 0.0038858
 8752.32510 0.6975055 0.0039524
 8761.08287 0.6988288 0.0039922
 8769.84065 0.6987690 0.0039325
 8778.61041 0.7013572 0.0039513
 8787.39215 0.6990042 0.0038147
 8796.17448 0.6970327 0.0037845
 8804.98137 0.6941838 0.0038134
 8813.78766 0.6909204 0.0038005
 8822.59455 0.6841492 0.0037816
 8831.41342 0.6788353 0.0038136
 8840.25684 0.6748862 0.0038147
 8849.08829 0.6741928 0.0038172
 8857.94369 0.6746567 0.0037698
 8866.79969 0.6714977 0.0037814
 8875.66766 0.6693869 0.0037653
 8884.54822 0.6686897 0.0037583
 8893.42817 0.6704894 0.0037042
 8902.32071 0.6704367 0.0037162
 8911.22582 0.6698507 0.0036525
 8920.14231 0.6663134 0.0036890
 8929.05939 0.6652438 0.0036889
 8937.98906 0.6641510 0.0036455
 8946.93070 0.6587175 0.0036535
 8955.87234 0.6527702 0.0036033
 8964.82597 0.6409584 0.0036501
 8973.79216 0.6331530 0.0036204
 8982.77034 0.6215358 0.0036412
 8991.74912 0.6075031 0.0035713
 9000.73987 0.6012390 0.0035342
 9009.74260 0.5899972 0.0035001
 9018.75791 0.5806081 0.0034769
 9027.77262 0.5706492 0.0034543
 9036.80050 0.5632364 0.0034453
 9045.84037 0.5502586 0.0034411
 9054.89221 0.5495122 0.0034387
 9063.94405 0.5484891 0.0034569
 9073.00847 0.5611284 0.0034672
 9082.07229 0.5614341 0.0035033
 9091.16126 0.5524933 0.0035122
 9100.25023 0.5504732 0.0034846
 9109.35118 0.5414581 0.0034225
 9118.46471 0.5321117 0.0034401
 9127.57764 0.5217748 0.0034005
 9136.70315 0.5107939 0.0034571
 9145.84123 0.5032532 0.0034213
 9154.99129 0.5071321 0.0034756
 9164.15393 0.4919497 0.0035097
 9173.31597 0.4819593 0.0036221
 9182.49059 0.4810341 0.0036762
 9191.66521 0.4821658 0.0036661
 9200.86438 0.4842635 0.0036985
 9210.06355 0.4888694 0.0035077
 9219.27530 0.4863040 0.0035008
 9228.49903 0.4929048 0.0035554
 9237.72275 0.4955746 0.0036962
 9246.95846 0.5003006 0.0037260
 9256.20674 0.5099251 0.0037399
 9265.46700 0.5179072 0.0036703
 9274.72786 0.5195762 0.0036196
 9284.00070 0.5223960 0.0036691
 9293.28551 0.5251002 0.0037055
 9302.58290 0.5280842 0.0037249
 9311.88030 0.5310125 0.0037700
 9321.20224 0.5293932 0.0037448
 9330.52359 0.5295953 0.0038177
 9339.85812 0.5310913 0.0037316
 9349.19204 0.5357003 0.0038880
 9358.53854 0.5331091 0.0041513
 9367.89702 0.5327280 0.0039120
 9377.26808 0.5346959 0.0041040
 9386.65112 0.5307077 0.0045619
 9396.03415 0.5337647 0.0048394
 9405.42977 0.5346139 0.0048136
 9414.83736 0.5332011 0.0043996
 9424.24495 0.5406659 0.0039889
 9433.67709 0.5455160 0.0037661
 9443.10924 0.5502043 0.0040021
 9452.55396 0.5495498 0.0037123
 9462.01066 0.5460286 0.0035867
 9471.46736 0.5491955 0.0035782
 9480.94862 0.5521290 0.0035767
 9490.41790 0.5522631 0.0035611
 9499.91113 0.5549710 0.0035800
 9509.41694 0.5586504 0.0035626
 9518.92275 0.5569625 0.0036242
 9528.44114 0.5530813 0.0036419
 9537.97151 0.5440155 0.0036856
 9547.51385 0.5375215 0.0037706
 9557.05619 0.5297407 0.0038884
 9566.61112 0.5253035 0.0039365
 9576.17861 0.5214686 0.0039104
 9585.75809 0.5155223 0.0039098
 9595.33757 0.5149283 0.0038819
 9604.94100 0.5143073 0.0038636
 9614.54503 0.5146661 0.0037148
 9624.16164 0.5105897 0.0036141
 9633.78963 0.5076085 0.0035526
 9643.41821 0.5016209 0.0035106
 9653.05878 0.4989367 0.0034839
 9662.72449 0.4955645 0.0034841
 9672.37704 0.4907150 0.0034749
 9682.05473 0.4920886 0.0035519
 9691.73243 0.4903526 0.0037114
 9701.43468 0.4905722 0.0038137
 9711.13633 0.4869053 0.0039892
 9720.83859 0.4897388 0.0040011
 9730.56539 0.4854899 0.0039563
 9740.29160 0.4825428 0.0037635
 9750.03038 0.4830943 0.0036443
 9759.78175 0.4815553 0.0037258
 9769.54509 0.4804822 0.0038605
 9779.30843 0.4772710 0.0039262
 9789.09632 0.4758474 0.0039747
 9798.88422 0.4742310 0.0039549
 9808.68469 0.4729221 0.0037649
 9818.49714 0.4662644 0.0037492
 9828.30959 0.4632600 0.0038259
 9838.14659 0.4650260 0.0038683
 9847.98360 0.4619600 0.0038834
 9857.82060 0.4626042 0.0039261
 9867.68156 0.4620374 0.0039289
 9877.55570 0.4587575 0.0039118
 9887.42924 0.4543770 0.0038116
 9897.32793 0.4421268 0.0037684
 9907.21345 0.4309369 0.0039289
 9917.12412 0.4208594 0.0038024
 9927.04737 0.4213770 0.0038343
 9936.97001 0.4132412 0.0039121
 9946.90524 0.4117896 0.0040778
 9956.85244 0.4044925 0.0042075
 9966.81222 0.4043937 0.0041234
 9976.78398 0.4103532 0.0038696
 9986.75574 0.4159356 0.0036734
 9996.74008 0.4247993 0.0038129
 10006.74897 0.4362332 0.0038409
 10016.74528 0.4427096 0.0038058
 10026.76615 0.4420199 0.0038256
 10036.79960 0.4446841 0.0038235
 10046.83244 0.4355276 0.0037957
 10056.87846 0.4319884 0.0038179
 10066.93647 0.4389353 0.0038461
 10077.00644 0.4365911 0.0039083
 10087.08840 0.4383223 0.0039255
 10097.17036 0.4463077 0.0039064
 10107.26549 0.4418546 0.0038604
 10117.37140 0.4403486 0.0038641
 10127.49049 0.4350167 0.0038884
 10137.62276 0.4253009 0.0038931
 10147.75383 0.4220587 0.0038805
 10157.91005 0.4207656 0.0038595
 10168.06507 0.4206893 0.0038300
 10178.23327 0.4191280 0.0038383
 10188.41345 0.4284600 0.0038546
 10198.60680 0.4275635 0.0038938
 10208.79896 0.4298491 0.0039396
 10219.00429 0.4244002 0.0039303
 10229.23357 0.4196325 0.0038757
 10239.45088 0.4124668 0.0038829
 10249.69335 0.4102811 0.0038753
 10259.94659 0.4043005 0.0039225
 10270.21301 0.3941519 0.0039310
 10280.47943 0.3785354 0.0039381
 10290.75783 0.3583145 0.0040277
 10301.04820 0.3330485 0.0043411
 10311.35175 0.3053384 0.0043930
 10321.66728 0.2830982 0.0046593
 10331.98281 0.2671939 0.0049541
 10342.32230 0.2628826 0.0049588
 10352.66179 0.2538550 0.0046983
 10363.01445 0.2675194 0.0047732
 10373.37909 0.2933613 0.0047283
 10383.75571 0.3184353 0.0048308
 10394.14430 0.3639010 0.0052943
 10404.53290 0.3835579 0.0054353
 10414.93467 0.4022739 0.0054959
 10425.34842 0.4177365 0.0056075
 10435.77415 0.4046728 0.0059854
 10446.21185 0.3926110 0.0061059
 10456.66154 0.3915738 0.0063224
 10467.12440 0.4086282 0.0065581
 10477.58726 0.4182985 0.0070657
 10488.06210 0.4423891 0.0077824
 10498.54891 0.4382492 0.0092674
 10509.04771 0.4317376 0.0131104
