# SOURCE  = 'Quimby et al. 2018' /                                                
# OBJECT  = 'PTF12dam'           /                                                
# Z       =             0.107500 / wavelengths in OBSERVER FRAME                 
# NORM    =          1.48833E-16 / fluxes divided by norm                         
# CLIPPED =                    1 / galaxy emission lines removed                  
# SMOOTHED=                    1 / spectrum has been smoothed                     
# COLUMN01= 'Wavelength (Angstrom)' /                                             
# COLUMN02= 'Flux Density (erg/s/cm2/A)' /                                        
# COLUMN03= 'Flux Density Uncertainty (erg/s/cm2/A)' /                            
# END                                                                             
# 
# 
# 
# 
# 
# 
# 
# 
# 
# 
# Converted to Observer Frame using z=0.1075
 3879.42583 1.4275945 0.0618549
 3883.31392 1.3898534 0.0403032
 3887.18973 1.3765289 0.0315770
 3891.07812 1.3852272 0.0280309
 3894.97848 1.4046309 0.0263685
 3898.86657 1.4487791 0.0262395
 3902.76693 1.4651453 0.0261247
 3906.66760 1.4733902 0.0260070
 3910.58024 1.4888505 0.0259433
 3914.49288 1.4805591 0.0259223
 3918.40553 1.4572108 0.0259991
 3922.31847 1.4439596 0.0259931
 3926.24339 1.4286748 0.0260574
 3930.16831 1.4302082 0.0252844
 3934.10551 1.4391496 0.0250418
 3938.03043 1.4161066 0.0248331
 3941.96792 1.4069777 0.0245619
 3945.91740 1.4049097 0.0243227
 3949.85460 1.3949355 0.0240312
 3953.81635 1.4037936 0.0237275
 3957.76582 1.4008353 0.0234872
 3961.72758 1.3844295 0.0233121
 3965.68933 1.3854184 0.0231681
 3969.65108 1.4054117 0.0229435
 3973.62511 1.3936396 0.0228279
 3977.59914 1.3828011 0.0226476
 3981.57317 1.3688900 0.0225505
 3985.55948 1.3526793 0.0224223
 3989.54579 1.3597656 0.0222038
 3993.53210 1.3567208 0.0220284
 3997.51840 1.3411926 0.0219952
 4001.51699 1.3520772 0.0220540
 4005.52785 1.3724270 0.0219796
 4009.52644 1.3732246 0.0219136
 4013.53730 1.3690130 0.0217768
 4017.54816 1.3760389 0.0217101
 4021.57130 1.3700757 0.0217203
 4025.59445 1.3831772 0.0215632
 4029.61759 1.3775187 0.0213947
 4033.65300 1.3818592 0.0211708
 4037.67584 1.3741786 0.0210694
 4041.72354 1.3734964 0.0208941
 4045.75896 1.3692569 0.0207284
 4049.80665 1.3657787 0.0205371
 4053.85435 1.3748660 0.0203847
 4057.91402 1.3679537 0.0202918
 4061.97400 1.3809236 0.0200890
 4066.03397 1.3802979 0.0199347
 4070.09394 1.3817832 0.0197448
 4074.16589 1.3733267 0.0196728
 4078.23814 1.3720504 0.0195444
 4082.32267 1.3798627 0.0194008
 4086.40720 1.3901931 0.0193164
 4090.49143 1.4039139 0.0193202
 4094.57596 1.4093734 0.0194106
 4098.67276 1.4202435 0.0193554
 4102.76927 1.4264719 0.0192751
 4106.87835 1.4308777 0.0191018
 4110.98714 1.4280875 0.0196013
 4115.09622 1.4302649 0.0212183
 4119.20530 1.4410858 0.0245329
 4123.32636 1.4441811 0.0211791
 4127.44772 1.4448843 0.0224225
 4131.58106 1.4367980 0.0244791
 4135.71470 1.3978541 0.0251546
 4139.84804 1.3913915 0.0229688
 4143.99396 1.3960830 0.0207041
 4148.13957 1.3910389 0.0196043
 4152.28549 1.4119788 0.0203504
 4156.43110 1.4251846 0.0185545
 4160.58930 1.4299300 0.0174985
 4164.74719 1.4397874 0.0174062
 4168.91736 1.4578650 0.0177696
 4173.08783 1.4701041 0.0176950
 4177.25801 1.4838610 0.0176354
 4181.44075 1.4814781 0.0175344
 4185.61093 1.4649569 0.0170682
 4189.80565 1.4623572 0.0169086
 4193.98840 1.4511030 0.0167873
 4198.18313 1.4411992 0.0166866
 4202.39013 1.4545310 0.0166236
 4206.58516 1.4638078 0.0165942
 4210.79216 1.4847691 0.0165107
 4214.99917 1.5006016 0.0164293
 4219.21845 1.4970046 0.0164017
 4223.43803 1.4963495 0.0164078
 4227.66959 1.4925146 0.0163009
 4231.88887 1.4987929 0.0162408
 4236.12043 1.5143073 0.0161818
 4240.36426 1.5212137 0.0162012
 4244.59612 1.5167277 0.0161757
 4248.83996 1.5292333 0.0160724
 4253.09607 1.5364799 0.0159457
 4257.35219 1.5352407 0.0158700
 4261.60830 1.5273027 0.0154229
 4265.86442 1.5221575 0.0153165
 4270.13281 1.5233618 0.0155572
 4274.40120 1.5263476 0.0154535
 4278.68217 1.5167246 0.0154128
 4282.96284 1.5211397 0.0153425
 4287.24351 1.5260037 0.0153171
 4291.52418 1.5395975 0.0152475
 4295.81712 1.5487288 0.0148498
 4300.11007 1.5424287 0.0148184
 4304.41530 1.5424154 0.0151273
 4308.72052 1.5401810 0.0150737
 4313.02574 1.5503377 0.0150618
 4317.34295 1.5586112 0.0150903
 4321.66045 1.5674990 0.0147992
 4325.97795 1.5782529 0.0148188
 4330.30773 1.6002469 0.0147991
 4334.63751 1.6086274 0.0147630
 4338.97957 1.6127183 0.0150727
 4343.30935 1.6266379 0.0149843
 4347.65140 1.6417841 0.0146058
 4352.00544 1.6512055 0.0145797
 4356.35977 1.6619825 0.0145547
 4360.71411 1.6618507 0.0145310
 4365.06844 1.6648022 0.0148675
 4369.43505 1.6647233 0.0148620
 4373.80137 1.6494633 0.0144682
 4378.18026 1.6437864 0.0143403
 4382.55915 1.6435171 0.0142310
 4386.95001 1.6405163 0.0141463
 4391.32890 1.6348406 0.0140794
 4395.72007 1.6332910 0.0140623
 4400.12322 1.6315001 0.0140127
 4404.51438 1.6352988 0.0139597
 4408.91783 1.6238827 0.0139307
 4413.33325 1.6084584 0.0138609
 4417.74897 1.6059121 0.0138217
 4422.16470 1.5959485 0.0137365
 4426.59240 1.5814803 0.0136762
 4431.00812 1.5682847 0.0136368
 4435.44810 1.5692633 0.0135813
 4439.87610 1.5707526 0.0135941
 4444.31607 1.5674365 0.0135199
 4448.76863 1.5624672 0.0134455
 4453.20861 1.5627385 0.0133763
 4457.66116 1.5776383 0.0133221
 4462.12569 1.5823530 0.0133767
 4466.59053 1.5789831 0.0133495
 4471.05506 1.5750543 0.0133300
 4475.53217 1.5655580 0.0133018
 4479.99670 1.5453327 0.0129960
 4484.48579 1.5309416 0.0132642
 4488.96290 1.5195972 0.0131879
 4493.45199 1.5222368 0.0131544
 4497.95335 1.5335265 0.0129057
 4502.44274 1.5570581 0.0129570
 4506.95639 1.5809255 0.0132855
 4511.45775 1.6015180 0.0132717
 4515.97169 1.6195292 0.0130129
 4520.48534 1.6251382 0.0130468
 4525.01126 1.6413273 0.0132991
 4529.52490 1.6513691 0.0132608
 4534.06340 1.6569781 0.0129666
 4538.58932 1.6661264 0.0129456
 4543.13979 1.6638818 0.0132314
 4547.67799 1.6769150 0.0132919
 4552.22847 1.6771780 0.0131133
 4556.77924 1.6811559 0.0132425
 4561.32972 1.6778685 0.0144006
 4565.89247 1.6752197 0.0148461
 4570.46750 1.6911658 0.0150887
 4575.03026 1.6690292 0.0149054
 4579.60529 1.6485287 0.0143223
 4584.19260 1.6301819 0.0131518
 4588.76763 1.6256949 0.0127264
 4593.36721 1.5981927 0.0127205
 4597.95452 1.5693535 0.0124199
 4602.55411 1.5337163 0.0123391
 4607.15369 1.5123453 0.0122725
 4611.76556 1.4996047 0.0122235
 4616.37742 1.4737291 0.0121516
 4620.98928 1.4518999 0.0121249
 4625.61343 1.4595264 0.0120710
 4630.23757 1.4698179 0.0119916
 4634.87398 1.4694982 0.0119323
 4639.49813 1.4633240 0.0118612
 4644.14682 1.4510339 0.0118400
 4648.78324 1.4521799 0.0118375
 4653.43164 1.4530327 0.0118201
 4658.09261 1.4401016 0.0115645
 4662.75358 1.4330457 0.0117737
 4667.41456 1.4441884 0.0116936
 4672.07553 1.4418395 0.0113453
 4676.74848 1.4390823 0.0115526
 4681.43401 1.4268720 0.0115570
 4686.10726 1.4241918 0.0112700
 4690.79279 1.4270972 0.0115255
 4695.49030 1.4253058 0.0115725
 4700.18811 1.4184808 0.0113748
 4704.88591 1.4189723 0.0116634
 4709.58342 1.4401038 0.0116184
 4714.29350 1.4518957 0.0113599
 4719.01586 1.4746475 0.0116056
 4723.73793 1.4774022 0.0117493
 4728.46029 1.4929516 0.0114937
 4733.18235 1.5035386 0.0119913
 4737.91699 1.5087548 0.0122685
 4742.65133 1.5179704 0.0122160
 4747.39824 1.5241846 0.0125717
 4752.14486 1.5561678 0.0119860
 4756.90405 1.5765049 0.0117998
 4761.65067 1.6066794 0.0120163
 4766.42214 1.6112967 0.0120325
 4771.18104 1.6359836 0.0119010
 4775.95251 1.6534930 0.0120965
 4780.73596 1.6713564 0.0117215
 4785.51971 1.7004336 0.0116332
 4790.30316 1.7247427 0.0117633
 4795.08661 1.7568089 0.0117244
 4799.88263 1.7797323 0.0120081
 4804.69064 1.7917392 0.0118208
 4809.48636 1.7861691 0.0117952
 4814.30695 1.7944115 0.0118885
 4819.11495 1.7973208 0.0118988
 4823.93523 1.7971042 0.0119473
 4828.75582 1.8110542 0.0119585
 4833.58837 1.8254938 0.0119312
 4838.42093 1.8498962 0.0124039
 4843.26577 1.8690271 0.0131815
 4848.09863 1.8799531 0.0149317
 4852.95575 1.8604273 0.0131440
 4857.80058 1.8581311 0.0147208
 4862.65770 1.8372705 0.0163966
 4867.52709 1.8376586 0.0167760
 4872.39648 1.8248247 0.0146590
 4877.26588 1.8201802 0.0139313
 4882.14784 1.8131632 0.0129120
 4887.02951 1.8104173 0.0137079
 4891.91118 1.7992721 0.0123759
 4896.80513 1.7802709 0.0114823
 4901.69908 1.7473403 0.0116227
 4906.60530 1.7304926 0.0113203
 4911.51153 1.7026972 0.0114810
 4916.41775 1.6714368 0.0111976
 4921.33626 1.6489002 0.0113483
 4926.25476 1.6410275 0.0112922
 4931.18554 1.6312160 0.0110316
 4936.11632 1.6234871 0.0112042
 4941.05908 1.6071767 0.0109366
 4945.98986 1.5972596 0.0111079
 4950.94519 1.5862461 0.0108321
 4955.90053 1.5668052 0.0109931
 4960.85586 1.5611845 0.0107434
 4965.81120 1.5632668 0.0109687
 4970.77851 1.5796391 0.0107565
 4975.74612 1.5897559 0.0107580
 4980.72601 1.6062347 0.0107646
 4985.70590 1.6164107 0.0107645
 4990.68580 1.6195158 0.0107779
 4995.67766 1.6135334 0.0107482
 5000.68211 1.6003805 0.0107379
 5005.67428 1.5969894 0.0107796
 5010.69070 1.5937403 0.0107196
 5015.69515 1.5875251 0.0107839
 5020.71187 1.5902686 0.0109943
 5025.72859 1.5944530 0.0111134
 5030.75699 1.5891638 0.0111427
 5035.78599 1.5910066 0.0110533
 5040.82757 1.5916951 0.0108169
 5045.86855 1.5806937 0.0106878
 5050.90953 1.5760489 0.0105776
 5055.96308 1.5601035 0.0105557
 5061.01664 1.5387065 0.0104616
 5066.08217 1.5297385 0.0104283
 5071.14771 1.5097820 0.0103765
 5076.21324 1.4973986 0.0103534
 5081.29135 1.4945765 0.0103307
 5086.38144 1.4937261 0.0102903
 5091.45955 1.4829344 0.0102581
 5096.56221 1.4780735 0.0100344
 5101.65230 1.4801002 0.0102043
 5106.75497 1.4690157 0.0099794
 5111.85704 1.4728109 0.0101621
 5116.97168 1.4665606 0.0099476
 5122.08692 1.4751090 0.0100964
 5127.21354 1.4824742 0.0098265
 5132.34076 1.4923363 0.0099714
 5137.47996 1.4826274 0.0097469
 5142.60718 1.4833477 0.0097081
 5147.75836 1.4920808 0.0098783
 5152.89756 1.4829218 0.0096868
 5158.04934 1.4730884 0.0098586
 5163.21309 1.4625646 0.0096416
 5168.37684 1.4583495 0.0098240
 5173.54060 1.4515365 0.0096151
 5178.71693 1.4481107 0.0095835
 5183.89266 1.4335442 0.0095593
 5189.08097 1.4242553 0.0095864
 5194.26928 1.4332730 0.0097759
 5199.47016 1.4299017 0.0096041
 5204.67045 1.4327821 0.0096826
 5209.87134 1.4323111 0.0096869
 5215.08420 1.4369541 0.0096995
 5220.29707 1.4369435 0.0096859
 5225.52191 1.4426045 0.0097062
 5230.74735 1.4433671 0.0097432
 5235.97219 1.4450538 0.0097164
 5241.20961 1.4547839 0.0097560
 5246.44703 1.4503047 0.0097598
 5251.69702 1.4537685 0.0097444
 5256.94642 1.4462658 0.0097626
 5262.20840 1.4432613 0.0097342
 5267.47037 1.4371868 0.0097536
 5272.73234 1.4451206 0.0095648
 5278.00630 1.4485914 0.0097779
 5283.29283 1.4588535 0.0098261
 5288.56738 1.4589900 0.0097992
 5293.86589 1.4618251 0.0098269
 5299.15241 1.4515142 0.0097293
 5304.45092 1.4360592 0.0098323
 5309.76201 1.4165796 0.0100209
 5315.07309 1.3988587 0.0100255
 5320.38417 1.3876849 0.0103556
 5325.70724 1.3676852 0.0103223
 5331.03030 1.3600942 0.0098847
 5336.36594 1.3419878 0.0098381
 5341.70158 1.3211955 0.0095205
 5347.03722 1.2876078 0.0095196
 5352.38484 1.2591403 0.0095555
 5357.74503 1.2293388 0.0092987
 5363.09265 1.2129343 0.0091508
 5368.46482 1.2031844 0.0092370
 5373.82502 1.1988564 0.0090713
 5379.19719 1.2045892 0.0090546
 5384.58194 1.2174183 0.0091827
 5389.96669 1.2279510 0.0090262
 5395.36341 1.2448027 0.0090307
 5400.74816 1.2557081 0.0092071
 5406.15687 1.2764480 0.0090753
 5411.56617 1.3003699 0.0091279
 5416.97548 1.3321317 0.0091393
 5422.38419 1.3586826 0.0091406
 5427.81805 1.3808711 0.0091951
 5433.23933 1.3994919 0.0092343
 5438.67319 1.4164265 0.0092508
 5444.11903 1.4317977 0.0092836
 5449.55289 1.4449260 0.0093529
 5455.01070 1.4654481 0.0092277
 5460.45654 1.4907187 0.0094693
 5465.92693 1.5294751 0.0095583
 5471.38535 1.5526119 0.0096528
 5476.86832 1.5703794 0.0095360
 5482.33871 1.5775909 0.0098041
 5487.82108 1.5893847 0.0098719
 5493.31603 1.6091770 0.0097093
 5498.79900 1.6250575 0.0099413
 5504.30593 1.6438907 0.0100075
 5509.80087 1.6715117 0.0100649
 5515.32038 1.6995819 0.0098958
 5520.82790 1.7153630 0.0101373
 5526.34740 1.7260056 0.0101478
 5531.87889 1.7262774 0.0099573
 5537.41097 1.7390229 0.0100093
 5542.95502 1.7499679 0.0100317
 5548.48651 1.7525222 0.0102105
 5554.04314 1.7570786 0.0100397
 5559.59918 1.7721152 0.0100747
 5565.15581 1.7892635 0.0100887
 5570.72383 1.8003695 0.0102861
 5576.29244 1.8152370 0.0101348
 5581.87363 1.8290036 0.0101635
 5587.45422 1.8569556 0.0101736
 5593.03541 1.8721138 0.0102517
 5598.62798 1.8816406 0.0104493
 5604.23373 1.8871170 0.0102455
 5609.83887 1.8961250 0.0102698
 5615.44462 1.8949255 0.0103018
 5621.06174 1.9019665 0.0103020
 5626.67947 1.9083283 0.0102794
 5632.30977 1.9075254 0.0103348
 5637.93947 1.9234113 0.0103385
 5643.58175 1.9305227 0.0103493
 5649.22343 1.9339030 0.0104014
 5654.87828 1.9252657 0.0103776
 5660.53254 1.9207391 0.0103696
 5666.18680 1.9099455 0.0104287
 5671.85363 1.9029793 0.0104443
 5677.53244 1.8995348 0.0104362
 5683.21185 1.8890558 0.0102648
 5688.89066 1.8681920 0.0104552
 5694.58205 1.8435929 0.0104489
 5700.27284 1.8134007 0.0104594
 5705.97621 1.7765480 0.0104916
 5711.68017 1.7499877 0.0102902
 5717.39552 1.7119925 0.0102859
 5723.11146 1.6783470 0.0104923
 5728.83938 1.6517005 0.0105226
 5734.55533 1.6220969 0.0105271
 5740.29523 1.5847923 0.0106491
 5746.03573 1.5590271 0.0105576
 5751.78820 1.5376374 0.0106592
 5757.54068 1.5192949 0.0107893
 5763.29316 1.5055217 0.0108504
 5769.05821 1.4871612 0.0110399
 5774.82327 1.4650077 0.0110998
 5780.60030 1.4435738 0.0109752
 5786.37733 1.4174058 0.0110674
 5792.16634 1.3995969 0.0111308
 5797.96793 1.3876175 0.0112306
 5803.75754 1.3746901 0.0113428
 5809.55912 1.3687702 0.0113734
 5815.37329 1.3704265 0.0113165
 5821.18685 1.3687763 0.0113600
 5827.01299 1.3579680 0.0110113
 5832.83914 1.3517902 0.0108597
 5838.67786 1.3572688 0.0107612
 5844.50400 1.3686836 0.0107123
 5850.35470 1.3778198 0.0106791
 5856.20479 1.3793802 0.0106667
 5862.06807 1.3791490 0.0106362
 5867.93074 1.3902578 0.0105863
 5873.79402 1.3908772 0.0105374
 5879.66927 1.4025578 0.0102857
 5885.54452 1.4108834 0.0102376
 5891.43175 1.4230140 0.0102564
 5897.31898 1.4266084 0.0102166
 5903.21879 1.4282869 0.0103883
 5909.13117 1.4222963 0.0105283
 5915.04296 1.4103279 0.0111115
 5920.95475 1.4074953 0.0121880
 5926.86713 1.4029917 0.0136257
 5932.80347 1.3958623 0.0150718
 5938.72783 1.3938291 0.0159368
 5944.66417 1.3971453 0.0159339
 5950.61309 1.3866678 0.0162131
 5956.56201 1.3603296 0.0159394
 5962.52291 1.3555589 0.0152592
 5968.48380 1.3608495 0.0140863
 5974.45727 1.3703601 0.0127682
 5980.43075 1.3937035 0.0116210
 5986.40422 1.4148029 0.0108827
 5992.40165 1.4478531 0.0106413
 5998.38770 1.4801586 0.0103678
 6004.38513 1.5069638 0.0101102
 6010.39573 1.5191354 0.0099299
 6016.40574 1.5334932 0.0097728
 6022.41574 1.5273188 0.0096279
 6028.45030 1.5301434 0.0094566
 6034.47289 1.5156643 0.0093331
 6040.50745 1.4995339 0.0091876
 6046.55459 1.4888158 0.0090408
 6052.58915 1.4625038 0.0090017
 6058.64826 1.4311330 0.0088972
 6064.70738 1.4196708 0.0087660
 6070.76649 1.4006954 0.0091319
 6076.83819 1.3886133 0.0095739
 6082.92186 1.3919140 0.0097971
 6089.00553 1.3772717 0.0095882
 6095.08920 1.3709228 0.0091232
 6101.18545 1.3609736 0.0087959
 6107.29367 1.3453038 0.0090253
 6113.40190 1.3389981 0.0107693
 6119.51013 1.3446698 0.0126408
 6125.63033 1.3285332 0.0115730
 6131.75113 1.3335024 0.0134080
 6137.88392 1.3259654 0.0155758
 6144.02868 1.3214732 0.0159800
 6150.17403 1.2900103 0.0160186
 6156.31879 1.2696902 0.0131739
 6162.47613 1.2632331 0.0159721
 6168.63347 1.2541758 0.0119654
 6174.80278 1.2463224 0.0105247
 6180.98467 1.2466953 0.0094091
 6187.16656 1.2611336 0.0087371
 6193.36103 1.2633173 0.0081614
 6199.54292 1.2665929 0.0076797
 6205.74937 1.2669019 0.0075414
 6211.95522 1.2693313 0.0074646
 6218.16166 1.2761189 0.0073356
 6224.38069 1.2788342 0.0073275
 6230.61109 1.2772769 0.0073168
 6236.84209 1.2828680 0.0073097
 6243.07309 1.2867486 0.0072935
 6249.31607 1.2845485 0.0072786
 6255.57163 1.2837404 0.0072708
 6261.82719 1.2869568 0.0071444
 6268.08274 1.2903439 0.0072614
 6274.35028 1.2924736 0.0072735
 6280.63039 1.2891060 0.0072939
 6286.91050 1.2916626 0.0073184
 6293.20259 1.2893537 0.0073476
 6299.49468 1.2867273 0.0073524
 6305.78677 1.2909194 0.0072060
 6312.10401 1.2923464 0.0071823
 6318.40808 1.2998781 0.0071360
 6324.72533 1.3057005 0.0072418
 6331.05395 1.3119925 0.0072546
 6337.38317 1.3211305 0.0072753
 6343.72437 1.3286887 0.0072893
 6350.06557 1.3322443 0.0071657
 6356.41935 1.3444415 0.0071426
 6362.77252 1.3622112 0.0071138
 6369.13888 1.3776827 0.0072309
 6375.50463 1.3996150 0.0072325
 6381.88237 1.4139773 0.0071473
 6388.26070 1.4297179 0.0071192
 6394.65101 1.4427513 0.0070917
 6401.05390 1.4536717 0.0070670
 6407.44421 1.4585589 0.0070553
 6413.85907 1.4634984 0.0070673
 6420.27394 1.4782484 0.0070504
 6426.68880 1.4887855 0.0070372
 6433.11565 1.4975626 0.0070310
 6439.55507 1.5117639 0.0070311
 6445.99449 1.5249958 0.0070560
 6452.43391 1.5376590 0.0070437
 6458.88590 1.5467641 0.0070360
 6465.34988 1.5545881 0.0070151
 6471.81385 1.5514272 0.0070051
 6478.28981 1.5527725 0.0068901
 6484.76636 1.5474465 0.0069902
 6491.25429 1.5364310 0.0070627
 6497.74282 1.5228251 0.0071138
 6504.24393 1.5115764 0.0070522
 6510.74444 1.4926544 0.0075199
 6517.25752 1.4787675 0.0080243
 6523.77061 1.4716990 0.0084499
 6530.29567 1.4625202 0.0083799
 6536.83331 1.4540581 0.0080125
 6543.37095 1.4528692 0.0075279
 6549.90860 1.4536206 0.0071170
 6556.45821 1.4630855 0.0069422
 6563.02041 1.4521012 0.0069014
 6569.58261 1.4441245 0.0068439
 6576.15678 1.4398221 0.0066715
 6582.71897 1.4368664 0.0066177
 6589.30573 1.4407574 0.0065777
 6595.90445 1.4379205 0.0066220
 6602.49121 1.4455487 0.0064840
 6609.10191 1.4537271 0.0064571
 6615.70124 1.4654063 0.0064599
 6622.32452 1.4657243 0.0064239
 6628.94781 1.4767817 0.0064196
 6635.57109 1.4818290 0.0064143
 6642.20695 1.4827192 0.0064200
 6648.85479 1.4745339 0.0064160
 6655.50263 1.4676504 0.0063985
 6662.16305 1.4645413 0.0062716
 6668.82286 1.4585861 0.0063351
 6675.49586 1.4542547 0.0063153
 6682.16825 1.4545934 0.0062005
 6688.85262 1.4487336 0.0062607
 6695.53759 1.4302579 0.0062155
 6702.23454 1.4091493 0.0060681
 6708.93149 1.3879280 0.0061108
 6715.64102 1.3719566 0.0060699
 6722.36252 1.3564295 0.0059394
 6729.08403 1.3501267 0.0059989
 6735.81751 1.3466765 0.0059859
 6742.55159 1.3440226 0.0058888
 6749.29765 1.3410239 0.0058753
 6756.04371 1.3295850 0.0059601
 6762.80175 1.3210438 0.0058549
 6769.56038 1.3134302 0.0059096
 6776.33100 1.3002264 0.0057771
 6783.10161 1.2848836 0.0057297
 6789.88421 1.2749674 0.0057715
 6796.67938 1.2613626 0.0056450
 6803.47454 1.2451718 0.0056127
 6810.28169 1.2321436 0.0055738
 6817.08944 1.2212646 0.0055355
 6823.90916 1.2114403 0.0055099
 6830.74087 1.2066534 0.0054848
 6837.56059 1.2017075 0.0054564
 6844.40487 1.1950043 0.0054263
 6851.24855 1.1887094 0.0053924
 6858.10541 1.1795554 0.0053643
 6864.96167 1.1664999 0.0053391
 6871.81792 1.1554509 0.0053127
 6878.69934 1.1415451 0.0052135
 6885.58015 1.1266015 0.0052547
 6892.46096 1.1136705 0.0051819
 6899.35435 1.1010003 0.0052897
 6906.24774 1.0927920 0.0052841
 6913.15311 1.0786307 0.0052730
 6920.07105 1.0669284 0.0052672
 6926.98840 1.0575924 0.0051756
 6933.91892 1.0498949 0.0052203
 6940.86082 1.0401567 0.0054117
 6947.79134 1.0301665 0.0057421
 6954.74582 1.0199536 0.0054969
 6961.70030 1.0063090 0.0060728
 6968.65478 0.9927817 0.0066239
 6975.63381 0.9708284 0.0067746
 6982.60087 0.9524413 0.0063150
 6989.59188 0.9446282 0.0057165
 6996.58349 0.9460751 0.0051832
 7003.57510 0.9395245 0.0050097
 7010.57869 0.9356604 0.0050981
 7017.59425 0.9301040 0.0049126
 7024.61042 0.9190080 0.0047540
 7031.63856 0.9099659 0.0048357
 7038.66671 0.9037561 0.0050163
 7045.70683 0.8962398 0.0051205
 7052.74755 0.8937134 0.0050971
 7059.80025 0.8927099 0.0049828
 7066.86492 0.8915013 0.0047663
 7073.93020 0.8908838 0.0046328
 7081.00745 0.8931746 0.0046227
 7088.08471 0.8876195 0.0045696
 7095.17394 0.8873417 0.0045148
 7102.26377 0.8880929 0.0045047
 7109.37755 0.8842862 0.0044935
 7116.47936 0.8843223 0.0044783
 7123.60573 0.8854833 0.0044671
 7130.71951 0.8855773 0.0044108
 7137.85845 0.8876331 0.0044726
 7144.99680 0.8851989 0.0044368
 7152.13514 0.8832701 0.0045301
 7159.28606 0.8841299 0.0045004
 7166.44955 0.8820732 0.0045825
 7173.61245 0.8837233 0.0045027
 7180.78792 0.8877180 0.0044893
 7187.97537 0.8939076 0.0045219
 7195.16283 0.8986382 0.0046283
 7202.35028 0.9076982 0.0047700
 7209.56288 0.9142840 0.0047036
 7216.76231 0.9263465 0.0046712
 7223.98690 0.9306381 0.0046324
 7231.21148 0.9341136 0.0046199
 7238.43607 0.9375845 0.0046314
 7245.68461 0.9383327 0.0046499
 7252.92177 0.9306393 0.0046519
 7260.18288 0.9252610 0.0046362
 7267.44400 0.9164878 0.0046345
 7274.70512 0.9116714 0.0046112
 7281.97881 0.9110716 0.0045488
 7289.26449 0.9037759 0.0044882
 7296.55016 0.8973368 0.0044517
 7303.84781 0.8957272 0.0044092
 7311.15863 0.8919480 0.0043151
 7318.46886 0.8883329 0.0043451
 7325.77909 0.8906362 0.0043117
 7333.11387 0.8832533 0.0042243
 7340.44865 0.8817841 0.0042576
 7347.78344 0.8795541 0.0041827
 7355.13020 0.8724194 0.0041544
 7362.48953 0.8672603 0.0041845
 7369.84887 0.8655169 0.0041091
 7377.22079 0.8612094 0.0040961
 7384.60468 0.8633453 0.0041415
 7391.98857 0.8639708 0.0040746
 7399.38444 0.8592838 0.0040610
 7406.78091 0.8600721 0.0041079
 7414.18936 0.8621786 0.0040495
 7421.59721 0.8621544 0.0040529
 7429.01823 0.8708743 0.0040588
 7436.45124 0.8812356 0.0040621
 7443.88424 0.8900527 0.0040752
 7451.32922 0.9054949 0.0040882
 7458.78678 0.9145329 0.0041007
 7466.24433 0.9249703 0.0041110
 7473.71387 0.9322562 0.0041274
 7481.18341 0.9345007 0.0040772
 7488.66552 0.9313669 0.0041354
 7496.14763 0.9284787 0.0041306
 7503.65430 0.9275185 0.0041182
 7511.16037 0.9210081 0.0040538
 7518.66704 0.9188827 0.0040965
 7526.18568 0.9131296 0.0040956
 7533.71691 0.9122484 0.0040348
 7541.24813 0.9070742 0.0040244
 7548.79133 0.8941580 0.0041108
 7556.33453 0.8789368 0.0041804
 7563.89031 0.8610362 0.0041731
 7571.45807 0.8445578 0.0042132
 7579.02582 0.8274999 0.0042538
 7586.60616 0.8145343 0.0041741
 7594.19847 0.8042737 0.0043087
 7601.79078 0.8009089 0.0047412
 7609.39567 0.7974645 0.0051824
 7616.99996 0.7941475 0.0055520
 7624.61682 0.7902082 0.0055512
 7632.24627 0.7891775 0.0054310
 7639.87571 0.7922938 0.0052626
 7647.51713 0.7952024 0.0052121
 7655.17053 0.7978427 0.0051218
 7662.81195 0.8079259 0.0049531
 7670.47793 0.8208995 0.0049227
 7678.15648 0.8360584 0.0049108
 7685.83444 0.8523338 0.0049292
 7693.52497 0.8659472 0.0048349
 7701.21550 0.8861349 0.0047568
 7708.91801 0.9006197 0.0046068
 7716.62112 0.9190777 0.0044232
 7724.33620 0.9309755 0.0043665
 7732.06327 0.9481414 0.0043001
 7739.80291 0.9615030 0.0043074
 7747.54255 0.9765543 0.0045951
 7755.28219 0.9843376 0.0044118
 7763.04639 0.9933469 0.0044944
 7770.81059 0.9997181 0.0047485
 7778.57419 1.0068475 0.0048973
 7786.35096 1.0342745 0.0049055
 7794.13971 1.0474904 0.0047253
 7801.94044 1.0663346 0.0044934
 7809.74117 1.0794359 0.0043063
 7817.54190 1.0873286 0.0046715
 7825.36779 1.0851719 0.0043495
 7833.19307 1.0837326 0.0042186
 7841.03093 1.0747150 0.0042022
 7848.86820 1.0692703 0.0041862
 7856.71804 1.0663096 0.0041601
 7864.58045 1.0636225 0.0041403
 7872.43029 1.0678289 0.0041285
 7880.30529 1.0693347 0.0041222
 7888.19166 1.0663158 0.0041191
 7896.07863 1.0596898 0.0041198
 7903.97759 1.0537518 0.0041008
 7911.87654 1.0483657 0.0041269
 7919.80004 1.0381424 0.0041725
 7927.71157 1.0349948 0.0043528
 7935.63507 1.0365769 0.0046758
 7943.58313 1.0397558 0.0051092
 7951.51862 1.0389940 0.0055687
 7959.46668 1.0327609 0.0059580
 7967.42732 1.0304228 0.0059875
 7975.39993 1.0203431 0.0056955
 7983.37255 1.0071636 0.0053391
 7991.35714 0.9998150 0.0048624
 7999.35431 0.9893471 0.0046888
 8007.35148 0.9810795 0.0050089
 8015.36123 0.9738217 0.0058003
 8023.37038 0.9658103 0.0060623
 8031.39210 0.9538926 0.0066750
 8039.42641 0.9501000 0.0078395
 8047.47209 0.9460666 0.0083705
 8055.51837 0.9369445 0.0078540
 8063.57723 0.9188624 0.0068295
 8071.63549 0.8997293 0.0057746
 8079.70632 0.8917117 0.0063872
 8087.78914 0.8797497 0.0055628
 8095.88453 0.8791541 0.0051036
 8103.97992 0.8735088 0.0047696
 8112.07531 0.8718984 0.0046494
 8120.19466 0.8670048 0.0045364
 8128.31460 0.8597670 0.0043909
 8136.44653 0.8434777 0.0042473
 8144.57905 0.8327011 0.0042224
 8152.72295 0.8205906 0.0041233
 8160.88003 0.8080602 0.0041041
 8169.03651 0.8018230 0.0040568
 8177.20497 0.7961085 0.0039851
 8185.38660 0.7937394 0.0039700
 8193.56764 0.7911041 0.0040803
 8201.76065 0.7899709 0.0041744
 8209.96624 0.7784888 0.0038827
 8218.17243 0.7765479 0.0040602
 8226.38999 0.7674311 0.0042583
 8234.62014 0.7605805 0.0044761
 8242.85028 0.7557075 0.0043892
 8251.10498 0.7530417 0.0041581
 8259.34770 0.7483439 0.0039341
 8267.61438 0.7468758 0.0038900
 8275.88166 0.7473295 0.0039978
 8284.16091 0.7370501 0.0037993
 8292.44017 0.7237202 0.0038001
 8300.73140 0.7174988 0.0036996
 8309.03521 0.7122844 0.0036080
 8317.33902 0.7064167 0.0036346
 8325.66738 0.7027249 0.0036953
 8333.98377 0.6970165 0.0036969
 8342.32411 0.6933000 0.0036925
 8350.66506 0.6912799 0.0036422
 8359.01738 0.6870330 0.0035513
 8367.38287 0.6812735 0.0035971
 8375.74777 0.6822023 0.0037299
 8384.12525 0.6867659 0.0037545
 8392.50272 0.6872799 0.0038409
 8400.89218 0.6863241 0.0041804
 8409.29421 0.6827090 0.0047955
 8417.70821 0.6785346 0.0058285
 8426.12282 0.6663164 0.0072269
 8434.54881 0.6557177 0.0081035
 8442.98797 0.6423538 0.0084758
 8451.42653 0.6385376 0.0081257
 8459.88965 0.6430097 0.0077542
 8468.34079 0.6511909 0.0069499
 8476.81589 0.6548162 0.0061883
 8485.29158 0.6528317 0.0054590
 8493.76728 0.6447752 0.0048720
 8502.26693 0.6381095 0.0044228
 8510.76718 0.6414847 0.0041177
 8519.27941 0.6429515 0.0039237
 8527.80421 0.6480241 0.0039373
 8536.32842 0.6515327 0.0039877
 8544.86520 0.6593269 0.0041116
 8553.41456 0.6604798 0.0041152
 8561.96393 0.6595717 0.0040213
 8570.52526 0.6541778 0.0039610
 8579.09858 0.6503197 0.0039818
 8587.68447 0.6517727 0.0041770
 8596.27037 0.6469387 0.0041087
 8604.85626 0.6496684 0.0040197
 8613.46671 0.6503935 0.0039757
 8622.08914 0.6548807 0.0040753
 8630.69959 0.6535079 0.0040375
 8639.33459 0.6533101 0.0040468
 8647.98217 0.6505615 0.0040847
 8656.61717 0.6488639 0.0041033
 8665.27673 0.6431111 0.0040189
 8673.94827 0.6335218 0.0040225
 8682.61981 0.6304178 0.0040238
 8691.30392 0.6282751 0.0041371
 8700.00001 0.6310501 0.0042698
 8708.69671 0.6292794 0.0043491
 8717.40537 0.6333057 0.0043168
 8726.12602 0.6374199 0.0043282
 8734.84667 0.6462407 0.0041368
 8743.57989 0.6534922 0.0042127
 8752.32510 0.6580563 0.0042511
 8761.08287 0.6728147 0.0043312
 8769.84065 0.6882799 0.0044061
 8778.61041 0.7005482 0.0043480
 8787.39215 0.7105387 0.0041780
 8796.17448 0.7201478 0.0040952
 8804.98137 0.7254077 0.0040818
 8813.78766 0.7306920 0.0042018
 8822.59455 0.7316096 0.0042028
 8831.41342 0.7284412 0.0042818
 8840.25684 0.7346026 0.0043004
 8849.08829 0.7381654 0.0043146
 8857.94369 0.7413224 0.0042059
 8866.79969 0.7507020 0.0042292
 8875.66766 0.7494313 0.0041826
 8884.54822 0.7469742 0.0041107
 8893.42817 0.7488540 0.0041278
 8902.32071 0.7527389 0.0040400
 8911.22582 0.7562926 0.0039683
 8920.14231 0.7607844 0.0039586
 8929.05939 0.7605370 0.0039210
 8937.98906 0.7594395 0.0039647
 8946.93070 0.7592019 0.0038457
 8955.87234 0.7495798 0.0038752
 8964.82597 0.7458537 0.0038792
 8973.79216 0.7443603 0.0040168
 8982.77034 0.7451299 0.0040300
 8991.74912 0.7489610 0.0041437
 9000.73987 0.7527720 0.0043746
 9009.74260 0.7529672 0.0046034
 9018.75791 0.7513280 0.0050146
 9027.77262 0.7504247 0.0052370
 9036.80050 0.7403122 0.0054277
 9045.84037 0.7370054 0.0054078
 9054.89221 0.7327189 0.0054247
 9063.94405 0.7333276 0.0052968
 9073.00847 0.7244850 0.0052292
 9082.07229 0.7188690 0.0047655
 9091.16126 0.7164429 0.0044861
 9100.25023 0.7105984 0.0044178
 9109.35118 0.7036468 0.0044496
 9118.46471 0.6865275 0.0044670
 9127.57764 0.6715568 0.0044476
 9136.70315 0.6596621 0.0042573
 9145.84123 0.6453803 0.0040874
 9154.99129 0.6293285 0.0042614
 9164.15393 0.6143084 0.0047084
 9173.31597 0.6000818 0.0050151
 9182.49059 0.5848497 0.0053160
 9191.66521 0.5626813 0.0051989
 9200.86438 0.5426666 0.0049407
 9210.06355 0.5282546 0.0044340
 9219.27530 0.5169765 0.0042056
 9228.49903 0.5088632 0.0042756
 9237.72275 0.5067192 0.0044570
 9246.95846 0.4992121 0.0044411
 9256.20674 0.4959689 0.0043834
 9265.46700 0.4966544 0.0041402
 9274.72786 0.4948278 0.0039701
 9284.00070 0.4958065 0.0040469
 9293.28551 0.4953549 0.0041349
 9302.58290 0.4954051 0.0041244
 9311.88030 0.4975267 0.0041881
 9321.20224 0.5044101 0.0041850
 9330.52359 0.5033591 0.0042366
 9339.85812 0.5123116 0.0041063
 9349.19204 0.5256884 0.0040996
 9358.53854 0.5395452 0.0040905
 9367.89702 0.5516503 0.0040877
 9377.26808 0.5679287 0.0040951
 9386.65112 0.5838788 0.0040753
 9396.03415 0.5943373 0.0039622
 9405.42977 0.6064738 0.0039890
 9414.83736 0.6161771 0.0040325
 9424.24495 0.6313344 0.0040307
 9433.67709 0.6410949 0.0038826
 9443.10924 0.6505940 0.0038275
 9452.55396 0.6595183 0.0038420
 9462.01066 0.6663025 0.0039803
 9471.46736 0.6766272 0.0039284
 9480.94862 0.6874937 0.0039224
 9490.41790 0.6994276 0.0040603
 9499.91113 0.7122134 0.0042949
 9509.41694 0.7220823 0.0044470
 9518.92275 0.7291564 0.0045094
 9528.44114 0.7318892 0.0044224
 9537.97151 0.7368693 0.0043597
 9547.51385 0.7349491 0.0044922
 9557.05619 0.7436620 0.0049543
 9566.61112 0.7450373 0.0048638
 9576.17861 0.7419400 0.0048569
 9585.75809 0.7421263 0.0048545
 9595.33757 0.7406680 0.0048140
 9604.94100 0.7357651 0.0047570
 9614.54503 0.7344602 0.0044905
 9624.16164 0.7344102 0.0042660
 9633.78963 0.7339498 0.0041581
 9643.41821 0.7335196 0.0040808
 9653.05878 0.7288911 0.0040529
 9662.72449 0.7184105 0.0040903
 9672.37704 0.7109348 0.0040546
 9682.05473 0.7015244 0.0041594
 9691.73243 0.6842354 0.0044556
 9701.43468 0.6740365 0.0047166
 9711.13633 0.6668307 0.0050613
 9720.83859 0.6575351 0.0051283
 9730.56539 0.6524479 0.0050133
 9740.29160 0.6441590 0.0045715
 9750.03038 0.6322145 0.0042915
 9759.78175 0.6270715 0.0044373
 9769.54509 0.6209232 0.0047374
 9779.30843 0.6151716 0.0049592
 9789.09632 0.6076980 0.0049589
 9798.88422 0.6032230 0.0049350
 9808.68469 0.5806544 0.0045657
 9818.49714 0.5682852 0.0045298
 9828.30959 0.5583752 0.0046776
 9838.14659 0.5471565 0.0047520
 9847.98360 0.5410811 0.0047664
 9857.82060 0.5376005 0.0048623
 9867.68156 0.5358678 0.0049974
 9877.55570 0.5306101 0.0050379
 9887.42924 0.5367496 0.0052207
 9897.32793 0.5299952 0.0053768
 9907.21345 0.5267220 0.0058386
 9917.12412 0.5326834 0.0061083
 9927.04737 0.5277010 0.0068099
 9936.97001 0.5295994 0.0066292
 9946.90524 0.5215776 0.0067624
 9956.85244 0.5112178 0.0067909
 9966.81222 0.5049694 0.0068158
 9976.78398 0.4945613 0.0064320
 9986.75574 0.4834293 0.0057475
 9996.74008 0.4765284 0.0052623
 10006.74897 0.4694743 0.0049596
 10016.74528 0.4575317 0.0047917
 10026.76615 0.4550512 0.0046468
 10036.79960 0.4510599 0.0046639
 10046.83244 0.4421884 0.0047037
 10056.87846 0.4317423 0.0047215
 10066.93647 0.4223337 0.0048058
 10077.00644 0.4097621 0.0047552
 10087.08840 0.4052191 0.0046338
 10097.17036 0.3979985 0.0047030
 10107.26549 0.3921111 0.0046518
 10117.37140 0.3929730 0.0048120
 10127.49049 0.3911730 0.0048876
 10137.62276 0.3882388 0.0049852
 10147.75383 0.3910889 0.0049408
 10157.91005 0.4005219 0.0048224
 10168.06507 0.4016235 0.0047219
 10178.23327 0.4063736 0.0044513
 10188.41345 0.4134338 0.0044198
 10198.60680 0.4198151 0.0042897
 10208.79896 0.4206480 0.0043551
 10219.00429 0.4236140 0.0043886
 10229.23357 0.4285900 0.0044608
 10239.45088 0.4373878 0.0045083
 10249.69335 0.4476246 0.0045464
 10259.94659 0.4531697 0.0047622
 10270.21301 0.4579677 0.0051720
 10280.47943 0.4591739 0.0060300
 10290.75783 0.4599713 0.0074097
 10301.04820 0.4502485 0.0092795
 10311.35175 0.4464902 0.0116696
 10321.66728 0.4641373 0.0144690
 10331.98281 0.4914198 0.0182054
 10342.32230 0.5126902 0.0189180
 10352.66179 0.5301890 0.0186689
 10363.01445 0.5490624 0.0178872
 10373.37909 0.5433577 0.0186186
 10383.75571 0.5373777 0.0193846
 10394.14430 0.5382133 0.0169987
 10404.53290 0.5299415 0.0152824
 10414.93467 0.5326798 0.0132810
 10425.34842 0.5544122 0.0131284
 10435.77415 0.5794147 0.0141178
 10446.21185 0.6061919 0.0137164
 10456.66154 0.5934746 0.0129137
 10467.12440 0.6146373 0.0122249
 10477.58726 0.6272143 0.0133012
 10488.06210 0.6396021 0.0139482
 10498.54891 0.6381777 0.0160470
 10509.04771 0.6610790 0.0238801
 10519.55968 0.6877401 0.0390224
