# SOURCE  = 'Quimby et al. 2018' /                                                
# OBJECT  = 'PTF12dam'           /                                                
# Z       =             0.107500 / wavelengths in OBSERVER FRAME                 
# NORM    =          1.06131E-15 / fluxes divided by norm                         
# CLIPPED =                    1 / galaxy emission lines removed                  
# SMOOTHED=                    1 / spectrum has been smoothed                     
# COLUMN01= 'Wavelength (Angstrom)' /                                             
# COLUMN02= 'Flux Density (erg/s/cm2/A)' /                                        
# COLUMN03= 'Flux Density Uncertainty (erg/s/cm2/A)' /                            
# END                                                                             
# 
# 
# 
# 
# 
# 
# 
# 
# 
# 
# Converted to Observer Frame using z=0.1075
 3840.85040 1.7367944 0.0306103
 3844.68968 1.7327291 0.0183392
 3848.52865 1.7193754 0.0144648
 3852.38021 1.7081993 0.0128740
 3856.23146 1.6904784 0.0118876
 3860.09529 1.6822081 0.0113925
 3863.94655 1.6709629 0.0111300
 3867.81008 1.6601011 0.0108452
 3871.68619 1.6406080 0.0106279
 3875.54972 1.6122928 0.0102713
 3879.42583 1.6053545 0.0102346
 3883.31392 1.5869725 0.0100872
 3887.18973 1.5689915 0.0099419
 3891.07812 1.5530306 0.0098325
 3894.97848 1.5499437 0.0096059
 3898.86657 1.5459305 0.0096677
 3902.76693 1.5451976 0.0094823
 3906.66760 1.5483696 0.0095853
 3910.58024 1.5383650 0.0094364
 3914.49288 1.5361767 0.0095778
 3918.40553 1.5299907 0.0094609
 3922.31847 1.5218241 0.0094918
 3926.24339 1.5158366 0.0095485
 3930.16831 1.5228789 0.0096027
 3934.10551 1.5250850 0.0096918
 3938.03043 1.5422286 0.0097665
 3941.96792 1.5594429 0.0098835
 3945.91740 1.5571487 0.0099759
 3949.85460 1.5506575 0.0101164
 3953.81635 1.5487189 0.0102234
 3957.76582 1.5431418 0.0103828
 3961.72758 1.5300705 0.0105015
 3965.68933 1.5086373 0.0106754
 3969.65108 1.4856915 0.0108030
 3973.62511 1.4771330 0.0109865
 3977.59914 1.4787053 0.0111201
 3981.57317 1.4610329 0.0113088
 3985.55948 1.4674155 0.0114454
 3989.54579 1.4965307 0.0116344
 3993.53210 1.5159227 0.0117713
 3997.51840 1.5196387 0.0119559
 4001.51699 1.5228788 0.0120902
 4005.52785 1.5217606 0.0122658
 4009.52644 1.5280617 0.0122408
 4013.53730 1.5208775 0.0125563
 4017.54816 1.5282836 0.0125126
 4021.57130 1.5431879 0.0128202
 4025.59445 1.5368961 0.0127539
 4029.61759 1.5392293 0.0130497
 4033.65300 1.5501643 0.0129572
 4037.67584 1.5670692 0.0130692
 4041.72354 1.5765640 0.0131153
 4045.75896 1.5826074 0.0131944
 4049.80665 1.5824578 0.0134262
 4053.85435 1.5905755 0.0132624
 4057.91402 1.5962583 0.0134682
 4061.97400 1.5787672 0.0132668
 4066.03397 1.5761516 0.0132539
 4070.09394 1.5742126 0.0132045
 4074.16589 1.5785795 0.0131486
 4078.23814 1.5853260 0.0128958
 4082.32267 1.5846348 0.0129806
 4086.40720 1.5770154 0.0128729
 4090.49143 1.5788496 0.0127555
 4094.57596 1.5696390 0.0126115
 4098.67276 1.5522842 0.0122954
 4102.76927 1.5420951 0.0123022
 4106.87835 1.5270973 0.0121175
 4110.98714 1.5183010 0.0117691
 4115.09622 1.5091662 0.0117381
 4119.20530 1.4934305 0.0115195
 4123.32636 1.4711037 0.0111481
 4127.44772 1.4692283 0.0110841
 4131.58106 1.4677939 0.0107127
 4135.71470 1.4506286 0.0104534
 4139.84804 1.4398742 0.0103616
 4143.99396 1.4400753 0.0099816
 4148.13957 1.4463487 0.0097061
 4152.28549 1.4512682 0.0095919
 4156.43110 1.4655483 0.0092119
 4160.58930 1.4751680 0.0089275
 4164.74719 1.4974694 0.0087970
 4168.91736 1.5143532 0.0084249
 4173.08783 1.5109622 0.0081391
 4177.25801 1.5130877 0.0079987
 4181.44075 1.5116649 0.0076422
 4185.61093 1.5103011 0.0073599
 4189.80565 1.5100690 0.0070900
 4193.98840 1.5171466 0.0068853
 4198.18313 1.5164160 0.0066196
 4202.39013 1.5058146 0.0063633
 4206.58516 1.4906280 0.0061760
 4210.79216 1.4681146 0.0059318
 4214.99917 1.4525917 0.0056996
 4219.21845 1.4343523 0.0054288
 4223.43803 1.4191360 0.0056514
 4227.66959 1.4093893 0.0051777
 4231.88887 1.3977029 0.0051635
 4236.12043 1.3808771 0.0052643
 4240.36426 1.3600819 0.0054608
 4244.59612 1.3364086 0.0052725
 4248.83996 1.3207823 0.0048442
 4253.09607 1.3164608 0.0044520
 4257.35219 1.3153417 0.0041821
 4261.60830 1.3231819 0.0045042
 4265.86442 1.3309031 0.0041287
 4270.13281 1.3374310 0.0041823
 4274.40120 1.3456331 0.0040032
 4278.68217 1.3551226 0.0041156
 4282.96284 1.3628256 0.0043156
 4287.24351 1.3679078 0.0046124
 4291.52418 1.3774465 0.0048276
 4295.81712 1.3857217 0.0047690
 4300.11007 1.3985192 0.0046427
 4304.41530 1.4001004 0.0044251
 4308.72052 1.4039932 0.0046056
 4313.02574 1.4034097 0.0047791
 4317.34295 1.3974701 0.0047474
 4321.66045 1.3857464 0.0048274
 4325.97795 1.3741058 0.0050461
 4330.30773 1.3647771 0.0052402
 4334.63751 1.3602372 0.0054482
 4338.97957 1.3606946 0.0056694
 4343.30935 1.3506857 0.0057917
 4347.65140 1.3551672 0.0060288
 4352.00544 1.3564591 0.0062768
 4356.35977 1.3518310 0.0065859
 4360.71411 1.3377963 0.0068565
 4365.06844 1.3257012 0.0071364
 4369.43505 1.3154618 0.0072875
 4373.80137 1.3103024 0.0075746
 4378.18026 1.2887007 0.0078687
 4382.55915 1.2638936 0.0081690
 4386.95001 1.2497042 0.0084749
 4391.32890 1.2421769 0.0088586
 4395.72007 1.2313579 0.0091772
 4400.12322 1.2238324 0.0093341
 4404.51438 1.2099235 0.0096504
 4408.91783 1.2060133 0.0099688
 4413.33325 1.1953971 0.0102886
 4417.74897 1.1818682 0.0106089
 4422.16470 1.1715128 0.0109292
 4426.59240 1.1695815 0.0112487
 4431.00812 1.1642605 0.0115668
 4435.44810 1.1673093 0.0116847
 4439.87610 1.1785672 0.0119938
 4444.31607 1.1885544 0.0122995
 4448.76863 1.1983994 0.0127257
 4453.20861 1.2041938 0.0130233
 4457.66116 1.2147964 0.0133152
 4462.12569 1.2162967 0.0136008
 4466.59053 1.2202154 0.0138794
 4471.05506 1.2228988 0.0141503
 4475.53217 1.2259722 0.0144128
 4479.99670 1.2300479 0.0146664
 4484.48579 1.2362798 0.0149109
 4488.96290 1.2383304 0.0149156
 4493.45199 1.2504355 0.0151394
 4497.95335 1.2591106 0.0153538
 4502.44274 1.2636842 0.0155587
 4506.95639 1.2696557 0.0157539
 4511.45775 1.2742541 0.0159394
 4515.97169 1.2699858 0.0161154
 4520.48534 1.2570202 0.0162815
 4525.01126 1.2482613 0.0164379
 4529.52490 1.2341713 0.0165845
 4534.06340 1.2312602 0.0167212
 4538.58932 1.2289997 0.0168479
 4543.13979 1.2320668 0.0171896
 4547.67799 1.2410548 0.0185047
 4552.22847 1.2546198 0.0173676
 4556.77924 1.2657152 0.0182563
 4561.32972 1.2640232 0.0196591
 4565.89247 1.2635258 0.0208554
 4570.46750 1.2597805 0.0204664
 4575.03026 1.2494925 0.0194355
 4579.60529 1.2415553 0.0182337
 4584.19260 1.2373780 0.0175455
 4588.76763 1.2355944 0.0189221
 4593.36721 1.2258301 0.0176145
 4597.95452 1.2272466 0.0173761
 4602.55411 1.2044518 0.0173608
 4607.15369 1.1947496 0.0173355
 4611.76556 1.1799245 0.0173002
 4616.37742 1.1601931 0.0172548
 4620.98928 1.1389683 0.0173989
 4625.61343 1.1283261 0.0173268
 4630.23757 1.1188755 0.0170311
 4634.87398 1.1097136 0.0169383
 4639.49813 1.1175038 0.0168353
 4644.14682 1.1180068 0.0167221
 4648.78324 1.1180340 0.0165988
 4653.43164 1.1142951 0.0164653
 4658.09261 1.1052296 0.0163218
 4662.75358 1.0868793 0.0161681
 4667.41456 1.0704762 0.0157824
 4672.07553 1.0505710 0.0156033
 4676.74848 1.0374526 0.0155876
 4681.43401 1.0274248 0.0153848
 4686.10726 1.0307455 0.0151722
 4690.79279 1.0347972 0.0149503
 4695.49030 1.0398444 0.0147194
 4700.18811 1.0492299 0.0142698
 4704.88591 1.0575978 0.0140182
 4709.58342 1.0666316 0.0137596
 4714.29350 1.0738418 0.0136345
 4719.01586 1.0869831 0.0133594
 4723.73793 1.0928079 0.0135224
 4728.46029 1.1222535 0.0127328
 4733.18235 1.1387140 0.0126290
 4737.91699 1.1452137 0.0130141
 4742.65133 1.1494262 0.0133421
 4747.39824 1.1525568 0.0149222
 4752.14486 1.1462246 0.0126907
 4756.90405 1.1454527 0.0124686
 4761.65067 1.1434216 0.0125108
 4766.42214 1.1359963 0.0126217
 4771.18104 1.1445222 0.0122589
 4775.95251 1.1465132 0.0107736
 4780.73596 1.1406168 0.0096872
 4785.51971 1.1324997 0.0088874
 4790.30316 1.1245849 0.0092127
 4795.08661 1.1114122 0.0082990
 4799.88263 1.0953848 0.0078319
 4804.69064 1.0839854 0.0075372
 4809.48636 1.0712703 0.0071303
 4814.30695 1.0596685 0.0068522
 4819.11495 1.0541815 0.0066243
 4823.93523 1.0528241 0.0062480
 4828.75582 1.0486157 0.0059899
 4833.58837 1.0437295 0.0057407
 4838.42093 1.0377944 0.0055346
 4843.26577 1.0289088 0.0057357
 4848.09863 1.0231545 0.0051179
 4852.95575 1.0066268 0.0051106
 4857.80058 0.9885588 0.0052595
 4862.65770 0.9780625 0.0053272
 4867.52709 0.9669648 0.0050313
 4872.39648 0.9677253 0.0045034
 4877.26588 0.9728494 0.0040507
 4882.14784 0.9839523 0.0037381
 4887.02951 1.0003853 0.0038490
 4891.91118 1.0067052 0.0035156
 4896.80513 1.0117520 0.0033608
 4901.69908 1.0100780 0.0032416
 4906.60530 1.0103581 0.0032125
 4911.51153 1.0097206 0.0031665
 4916.41775 1.0115492 0.0030943
 4921.33626 1.0172869 0.0031063
 4926.25476 1.0254155 0.0030971
 4931.18554 1.0357151 0.0030643
 4936.11632 1.0414813 0.0031136
 4941.05908 1.0505283 0.0031059
 4945.98986 1.0545352 0.0031358
 4950.94519 1.0598505 0.0032183
 4955.90053 1.0653723 0.0032383
 4960.85586 1.0693682 0.0032932
 4965.81120 1.0717669 0.0034048
 4970.77851 1.0742900 0.0034457
 4975.74612 1.0764750 0.0035209
 4980.72601 1.0757445 0.0036269
 4985.70590 1.0739981 0.0037118
 4990.68580 1.0711914 0.0037728
 4995.67766 1.0592625 0.0039233
 5000.68211 1.0461750 0.0040200
 5005.67428 1.0334235 0.0041493
 5010.69070 1.0217696 0.0042495
 5015.69515 1.0081410 0.0043185
 5020.71187 0.9954068 0.0044850
 5025.72859 0.9843935 0.0045512
 5030.75699 0.9772326 0.0047204
 5035.78599 0.9720235 0.0047808
 5040.82757 0.9623709 0.0049495
 5045.86855 0.9556904 0.0050014
 5050.90953 0.9478949 0.0050947
 5055.96308 0.9451049 0.0052067
 5061.01664 0.9369771 0.0052909
 5066.08217 0.9289922 0.0054404
 5071.14771 0.9251409 0.0054633
 5076.21324 0.9232602 0.0056007
 5081.29135 0.9172261 0.0056058
 5086.38144 0.9025132 0.0056714
 5091.45955 0.8899546 0.0057128
 5096.56221 0.8707713 0.0057566
 5101.65230 0.8504110 0.0057797
 5106.75497 0.8290643 0.0057320
 5111.85704 0.8096551 0.0058054
 5116.97168 0.7961197 0.0057377
 5122.08692 0.7811338 0.0057925
 5127.21354 0.7696664 0.0057071
 5132.34076 0.7633090 0.0057449
 5137.47996 0.7621309 0.0056440
 5142.60718 0.7651169 0.0056669
 5147.75836 0.7684073 0.0056117
 5152.89756 0.7733812 0.0054945
 5158.04934 0.7818968 0.0054940
 5163.21309 0.7925338 0.0053670
 5168.37684 0.8019398 0.0053567
 5173.54060 0.8148876 0.0052220
 5178.71693 0.8227153 0.0052034
 5183.89266 0.8275672 0.0050637
 5189.08097 0.8271188 0.0049745
 5194.26928 0.8222517 0.0048963
 5199.47016 0.8102862 0.0048027
 5204.67045 0.8006601 0.0047101
 5209.87134 0.7933752 0.0046281
 5215.08420 0.7903670 0.0045345
 5220.29707 0.7919071 0.0044551
 5225.52191 0.7974237 0.0043627
 5230.74735 0.8071492 0.0042347
 5235.97219 0.8172469 0.0041988
 5241.20961 0.8282431 0.0041150
 5246.44703 0.8333570 0.0039976
 5251.69702 0.8374431 0.0039699
 5256.94642 0.8354532 0.0038996
 5262.20840 0.8356529 0.0037977
 5267.47037 0.8367236 0.0037830
 5272.73234 0.8389820 0.0036954
 5278.00630 0.8408585 0.0036492
 5283.29283 0.8448716 0.0036525
 5288.56738 0.8527412 0.0035873
 5293.86589 0.8534564 0.0036500
 5299.15241 0.8556026 0.0038975
 5304.45092 0.8517736 0.0036331
 5309.76201 0.8540039 0.0037918
 5315.07309 0.8555670 0.0041175
 5320.38417 0.8561132 0.0044129
 5325.70724 0.8585566 0.0044707
 5331.03030 0.8570778 0.0042490
 5336.36594 0.8584009 0.0039690
 5341.70158 0.8571217 0.0038392
 5347.03722 0.8525456 0.0042048
 5352.38484 0.8483877 0.0039438
 5357.74503 0.8453241 0.0039409
 5363.09265 0.8414183 0.0040126
 5368.46482 0.8344301 0.0040879
 5373.82502 0.8267011 0.0041127
 5379.19719 0.8192427 0.0042273
 5384.58194 0.8128564 0.0043056
 5389.96669 0.8090291 0.0043285
 5395.36341 0.8045862 0.0044059
 5400.74816 0.8031116 0.0044820
 5406.15687 0.8028385 0.0045945
 5411.56617 0.7990534 0.0046062
 5416.97548 0.7921459 0.0046717
 5422.38419 0.7812787 0.0047328
 5427.81805 0.7718347 0.0047884
 5433.23933 0.7623477 0.0048227
 5438.67319 0.7567537 0.0048641
 5444.11903 0.7486693 0.0048975
 5449.55289 0.7392291 0.0049222
 5455.01070 0.7295516 0.0049372
 5460.45654 0.7127922 0.0048869
 5465.92693 0.6929341 0.0049298
 5471.38535 0.6729073 0.0049110
 5476.86832 0.6580667 0.0048790
 5482.33871 0.6466440 0.0048330
 5487.82108 0.6417952 0.0047270
 5493.31603 0.6439926 0.0046506
 5498.79900 0.6478650 0.0045578
 5504.30593 0.6550705 0.0044476
 5509.80087 0.6637349 0.0043786
 5515.32038 0.6762953 0.0042336
 5520.82790 0.6862875 0.0040441
 5526.34740 0.6960155 0.0038679
 5531.87889 0.7020316 0.0036772
 5537.41097 0.7079666 0.0034733
 5542.95502 0.7109386 0.0032579
 5548.48651 0.7164174 0.0030325
 5554.04314 0.7196402 0.0027984
 5559.59918 0.7226009 0.0025651
 5565.15581 0.7304971 0.0023354
 5570.72383 0.7396041 0.0021206
 5576.29244 0.7513263 0.0019747
 5581.87363 0.7625148 0.0018271
 5587.45422 0.7761143 0.0017308
 5593.03541 0.7877707 0.0016795
 5598.62798 0.7983123 0.0016583
 5604.23373 0.8029217 0.0016495
 5609.83887 0.8077786 0.0016422
 5615.44462 0.8116622 0.0016406
 5621.06174 0.8130934 0.0016407
 5626.67947 0.8136072 0.0017311
 5632.30977 0.8131879 0.0016318
 5637.93947 0.8150555 0.0016839
 5643.58175 0.8160083 0.0017623
 5649.22343 0.8109574 0.0018230
 5654.87828 0.8021556 0.0018182
 5660.53254 0.7969748 0.0017570
 5666.18680 0.7893026 0.0016781
 5671.85363 0.7818243 0.0016253
 5677.53244 0.7759689 0.0017239
 5683.21185 0.7691216 0.0016236
 5688.89066 0.7622813 0.0016235
 5694.58205 0.7570936 0.0016235
 5700.27284 0.7514275 0.0016081
 5705.97621 0.7445713 0.0016081
 5711.68017 0.7393637 0.0016081
 5717.39552 0.7312213 0.0016128
 5723.11146 0.7267419 0.0016245
 5728.83938 0.7220064 0.0016380
 5734.55533 0.7162926 0.0016698
 5740.29523 0.7080804 0.0017471
 5746.03573 0.7043676 0.0018957
 5751.78820 0.6994992 0.0021320
 5757.54068 0.6960831 0.0024579
 5763.29316 0.6912070 0.0029383
 5769.05821 0.6786810 0.0033663
 5774.82327 0.6733881 0.0038497
 5780.60030 0.6670092 0.0043441
 5786.37733 0.6625628 0.0048373
 5792.16634 0.6517746 0.0053263
 5797.96793 0.6478970 0.0058078
 5803.75754 0.6433022 0.0062785
 5809.55912 0.6345792 0.0067075
 5815.37329 0.6338359 0.0071384
 5821.18685 0.6336086 0.0075480
 5827.01299 0.6306452 0.0080560
 5832.83914 0.6292523 0.0084130
 5838.67786 0.6302142 0.0087378
 5844.50400 0.6344740 0.0089626
 5850.35470 0.6344614 0.0092029
 5856.20479 0.6329058 0.0093999
 5862.06807 0.6272017 0.0095502
 5867.93074 0.6241580 0.0097588
 5873.79402 0.6164477 0.0097040
 5879.66927 0.6076468 0.0096750
 5885.54452 0.6002290 0.0095823
 5891.43175 0.5923818 0.0094213
 5897.31898 0.5890362 0.0091868
 5903.21879 0.5880533 0.0088067
 5909.13117 0.5837861 0.0083874
 5915.04296 0.5839148 0.0078777
 5920.95475 0.5801574 0.0072758
 5926.86713 0.5799521 0.0064352
 5932.80347 0.5816839 0.0061705
 5938.72783 0.5808873 0.0063069
 5944.66417 0.5787926 0.0070030
 5950.61309 0.5734263 0.0047903
 5956.56201 0.5656417 0.0044894
 5962.52291 0.5671307 0.0040048
 5968.48380 0.5706101 0.0028261
 5974.45727 0.5838534 0.0021583
 5980.43075 0.5949554 0.0018950
 5986.40422 0.6037672 0.0019224
 5992.40165 0.6140715 0.0024691
 5998.38770 0.6141436 0.0020694
 6004.38513 0.6131240 0.0018963
 6010.39573 0.6087301 0.0022034
 6016.40574 0.6036596 0.0027092
 6022.41574 0.5953679 0.0035389
 6028.45030 0.5908918 0.0044676
 6034.47289 0.5918407 0.0054670
 6040.50745 0.5919226 0.0074232
 6046.55459 0.5942719 0.0098961
 6052.58915 0.5679277 0.0124055
 6058.64826 0.5679607 0.0160872
 6064.70738 0.5609012 0.0211784
 6070.76649 0.5453596 0.0258869
 6076.83819 0.5372864 0.0326146
 6082.92186 0.5211269 0.0425956
 6089.00553 0.5060646 0.0684533
