# SOURCE  = 'Quimby et al. 2018' /                                                
# OBJECT  = 'PTF12dam'           /                                                
# Z       =             0.107500 / wavelengths in OBSERVER FRAME                 
# NORM    =          3.81220E-18 / fluxes divided by norm                         
# CLIPPED =                    1 / galaxy emission lines removed                  
# SMOOTHED=                    1 / spectrum has been smoothed                     
# COLUMN01= 'Wavelength (Angstrom)' /                                             
# COLUMN02= 'Flux Density (erg/s/cm2/A)' /                                        
# COLUMN03= 'Flux Density Uncertainty (erg/s/cm2/A)' /                            
# END                                                                             
# 
# 
# 
# 
# 
# 
# 
# 
# 
# 
# Converted to Observer Frame using z=0.1075
 3461.63610 3.0128236 0.2198599
 3465.09507 2.9988239 0.2151402
 3468.55374 2.9714968 0.2067676
 3472.02499 3.0205443 0.2027422
 3475.49624 3.1036706 0.1944779
 3478.97947 2.9874375 0.1865827
 3482.45072 2.9785557 0.1827053
 3485.93425 2.9954934 0.1749578
 3489.42976 2.9695885 0.1715640
 3492.91328 2.9140024 0.1653359
 3496.40909 2.9200151 0.1626278
 3499.90459 2.9012163 0.1561357
 3503.40040 2.8822258 0.1526050
 3506.90818 2.8794627 0.1455182
 3510.41627 2.9184704 0.1418223
 3513.92435 2.9040227 0.1364501
 3517.44441 2.9385269 0.1314851
 3520.95249 2.9444211 0.1291585
 3524.47255 2.9410074 0.1252730
 3528.00519 2.9267809 0.1235632
 3531.52525 2.9573805 0.1205393
 3535.05789 2.9504387 0.1190369
 3538.60250 2.9546449 0.1164870
 3542.13514 2.9828300 0.1156038
 3545.67976 3.0048015 0.1132637
 3549.22437 3.0292213 0.1114031
 3552.76929 3.0439610 0.1106626
 3556.32618 3.0718064 0.1077452
 3559.88337 3.0373895 0.1068796
 3563.44027 2.9980977 0.1042834
 3567.00944 3.0167081 0.1028083
 3570.57891 3.0478439 0.0996860
 3574.14808 3.0796118 0.0985305
 3577.71725 3.1322348 0.0958070
 3581.29900 3.1290219 0.0938283
 3584.88045 3.1213651 0.0931229
 3588.46190 3.1171308 0.0911252
 3592.05592 3.1408949 0.0905002
 3595.64965 3.1301610 0.0885906
 3599.24337 3.0976434 0.0874946
 3602.83740 3.1376271 0.0854592
 3606.44340 3.1580532 0.0838243
 3610.04941 3.1304193 0.0836958
 3613.65541 3.1333866 0.0822153
 3617.27369 3.1134133 0.0820944
 3620.89227 3.1033721 0.0809243
 3624.51055 3.0907755 0.0803014
 3628.14111 3.0646930 0.0790347
 3631.75939 3.0238962 0.0778390
 3635.38995 3.0240624 0.0772690
 3639.03309 2.9913127 0.0761759
 3642.67592 2.9416547 0.0761476
 3646.31876 2.9253924 0.0745479
 3649.96159 2.8857160 0.0744022
 3653.61671 2.8518801 0.0731872
 3657.25954 2.8508360 0.0720051
 3660.92693 2.8137732 0.0713411
 3664.58205 2.7828887 0.0699407
 3668.24944 2.7611210 0.0694462
 3671.91683 2.7647402 0.0675113
 3675.58422 2.7445457 0.0662375
 3679.26389 2.7404132 0.0657523
 3682.94356 2.7553482 0.0633874
 3686.62323 2.7654271 0.0625203
 3690.31517 2.7512112 0.0602868
 3694.00712 2.7408566 0.0593769
 3697.69907 2.7635219 0.0576678
 3701.39101 2.7690723 0.0564684
 3705.09524 2.7739618 0.0563083
 3708.79946 2.7673776 0.0552686
 3712.51596 2.7666519 0.0553143
 3716.22019 2.7421832 0.0549570
 3719.93669 2.7483876 0.0548165
 3723.66547 2.7385530 0.0547460
 3727.38167 2.7377076 0.0547201
 3731.11045 2.7323248 0.0551225
 3734.83923 2.7321637 0.0544609
 3738.58028 2.7503705 0.0540888
 3742.32134 2.7598276 0.0541169
 3746.06210 2.7857716 0.0530077
 3749.80315 2.7845733 0.0524193
 3753.55649 2.7940311 0.0513294
 3757.30982 2.8246140 0.0502322
 3761.06315 2.8346996 0.0498599
 3764.82847 2.8392034 0.0487075
 3768.59408 2.8335795 0.0484946
 3772.35969 2.8600247 0.0479039
 3776.13728 2.8832164 0.0470891
 3779.91517 2.8862894 0.0472219
 3783.69306 2.9004633 0.0470628
 3787.47065 2.9281795 0.0467740
 3791.26081 2.9160810 0.0465424
 3795.05098 2.9146271 0.0462092
 3798.85313 2.9421408 0.0464597
 3802.64329 2.9483213 0.0464177
 3806.44574 2.9365680 0.0458426
 3810.26016 2.9179475 0.0460820
 3814.07488 2.9177694 0.0454580
 3817.87702 2.9009068 0.0454007
 3821.70402 2.8805072 0.0444528
 3825.51845 2.8832624 0.0439166
 3829.34545 2.8589201 0.0440888
 3833.17214 2.8525915 0.0439672
 3837.01142 2.8290961 0.0434712
 3840.85040 2.8273287 0.0439782
 3844.68968 2.8274558 0.0437835
 3848.52865 2.8083274 0.0439623
 3852.38021 2.8081994 0.0431574
 3856.23146 2.7943759 0.0427743
 3860.09529 2.7769673 0.0429243
 3863.94655 2.7580597 0.0424031
 3867.81008 2.7564955 0.0419175
 3871.68619 2.7474453 0.0417662
 3875.54972 2.7461579 0.0414140
 3879.42583 2.7271841 0.0407013
 3883.31392 2.7176621 0.0403305
 3887.18973 2.6989722 0.0393328
 3891.07812 2.6808469 0.0390199
 3894.97848 2.6910727 0.0384172
 3898.86657 2.6857734 0.0382606
 3902.76693 2.6768236 0.0387701
 3906.66760 2.6819537 0.0386451
 3910.58024 2.6800675 0.0390195
 3914.49288 2.6641538 0.0396449
 3918.40553 2.6455853 0.0408430
 3922.31847 2.6243062 0.0416895
 3926.24339 2.6212387 0.0433680
 3930.16831 2.5831163 0.0411028
 3934.10551 2.5686111 0.0413570
 3938.03043 2.5721605 0.0422352
 3941.96792 2.5771027 0.0424032
 3945.91740 2.5766940 0.0432603
 3949.85460 2.5866590 0.0433907
 3953.81635 2.5659523 0.0432966
 3957.76582 2.5649266 0.0438226
 3961.72758 2.5607643 0.0431919
 3965.68933 2.5715623 0.0422490
 3969.65108 2.5774343 0.0410743
 3973.62511 2.5748770 0.0398036
 3977.59914 2.5868113 0.0386234
 3981.57317 2.6009767 0.0375953
 3985.55948 2.6184225 0.0366104
 3989.54579 2.6031029 0.0358258
 3993.53210 2.6107142 0.0354178
 3997.51840 2.6242476 0.0352115
 4001.51699 2.6052482 0.0349482
 4005.52785 2.5812836 0.0358698
 4009.52644 2.5549304 0.0395335
 4013.53730 2.5686617 0.0382735
 4017.54816 2.5693803 0.0376234
 4021.57130 2.5663311 0.0365398
 4025.59445 2.5932844 0.0365838
 4029.61759 2.5799947 0.0369634
 4033.65300 2.5534041 0.0365508
 4037.67584 2.5323985 0.0360190
 4041.72354 2.5313175 0.0360442
 4045.75896 2.5415952 0.0352265
 4049.80665 2.5446718 0.0347524
 4053.85435 2.5510719 0.0346572
 4057.91402 2.5624454 0.0340672
 4061.97400 2.5904441 0.0334568
 4066.03397 2.6076887 0.0334834
 4070.09394 2.6056917 0.0326031
 4074.16589 2.5968640 0.0321922
 4078.23814 2.5737488 0.0319181
 4082.32267 2.5791647 0.0321758
 4086.40720 2.5747962 0.0322564
 4090.49143 2.5689201 0.0324819
 4094.57596 2.5702515 0.0326105
 4098.67276 2.5887356 0.0328078
 4102.76927 2.5996759 0.0328873
 4106.87835 2.6071026 0.0333276
 4110.98714 2.5953236 0.0332582
 4115.09622 2.5836730 0.0332523
 4119.20530 2.6051219 0.0332294
 4123.32636 2.5957732 0.0332814
 4127.44772 2.5953825 0.0333808
 4131.58106 2.6022470 0.0335299
 4135.71470 2.5984423 0.0341903
 4139.84804 2.6218338 0.0343101
 4143.99396 2.6392045 0.0336267
 4148.13957 2.6280963 0.0332024
 4152.28549 2.6220822 0.0326358
 4156.43110 2.6203246 0.0326162
 4160.58930 2.6180420 0.0316057
 4164.74719 2.6194050 0.0309688
 4168.91736 2.6172209 0.0304878
 4173.08783 2.6301792 0.0301770
 4177.25801 2.6499443 0.0299938
 4181.44075 2.6651649 0.0298307
 4185.61093 2.6734326 0.0296655
 4189.80565 2.6803229 0.0293994
 4193.98840 2.6729887 0.0291961
 4198.18313 2.6539719 0.0290889
 4202.39013 2.6372881 0.0290137
 4206.58516 2.6154468 0.0288783
 4210.79216 2.6104050 0.0287833
 4214.99917 2.6063893 0.0288947
 4219.21845 2.6082132 0.0289497
 4223.43803 2.6072881 0.0291735
 4227.66959 2.5843344 0.0294112
 4231.88887 2.5800540 0.0296593
 4236.12043 2.5679071 0.0293606
 4240.36426 2.5566521 0.0295204
 4244.59612 2.5426786 0.0299084
 4248.83996 2.5264373 0.0299417
 4253.09607 2.5337837 0.0299063
 4257.35219 2.5256698 0.0287974
 4261.60830 2.5040021 0.0282252
 4265.86442 2.4982851 0.0283935
 4270.13281 2.4840112 0.0282239
 4274.40120 2.4613719 0.0281214
 4278.68217 2.4361184 0.0280949
 4282.96284 2.4369049 0.0276492
 4287.24351 2.4307253 0.0274540
 4291.52418 2.4268944 0.0275318
 4295.81712 2.4406221 0.0270875
 4300.11007 2.4559367 0.0266447
 4304.41530 2.4656861 0.0260153
 4308.72052 2.4608495 0.0257266
 4313.02574 2.4684718 0.0255072
 4317.34295 2.4674766 0.0254140
 4321.66045 2.4663031 0.0257818
 4325.97795 2.4454787 0.0256775
 4330.30773 2.4393046 0.0260562
 4334.63751 2.4424882 0.0257393
 4338.97957 2.4355738 0.0252257
 4343.30935 2.4326122 0.0250026
 4347.65140 2.4225671 0.0253189
 4352.00544 2.4020343 0.0250761
 4356.35977 2.3818016 0.0252367
 4360.71411 2.3730593 0.0254813
 4365.06844 2.3825381 0.0257083
 4369.43505 2.3640323 0.0257412
 4373.80137 2.3657997 0.0255132
 4378.18026 2.3846018 0.0248317
 4382.55915 2.3985202 0.0249048
 4386.95001 2.3977535 0.0244642
 4391.32890 2.3945663 0.0240543
 4395.72007 2.3988934 0.0237532
 4400.12322 2.3889799 0.0236517
 4404.51438 2.3851202 0.0239263
 4408.91783 2.3771172 0.0239426
 4413.33325 2.3713598 0.0242557
 4417.74897 2.3798666 0.0244105
 4422.16470 2.4012375 0.0246047
 4426.59240 2.3976264 0.0247757
 4431.00812 2.3973157 0.0248897
 4435.44810 2.3977413 0.0246014
 4439.87610 2.4008775 0.0246676
 4444.31607 2.4058261 0.0247701
 4448.76863 2.4025762 0.0248260
 4453.20861 2.3924396 0.0251748
 4457.66116 2.3934274 0.0252215
 4462.12569 2.3870754 0.0252309
 4466.59053 2.3694124 0.0251934
 4471.05506 2.3668911 0.0248756
 4475.53217 2.3394203 0.0249333
 4479.99670 2.3129289 0.0250506
 4484.48579 2.2793970 0.0252115
 4488.96290 2.2484744 0.0253861
 4493.45199 2.2276559 0.0252803
 4497.95335 2.1921170 0.0255337
 4502.44274 2.1684041 0.0251765
 4506.95639 2.1694057 0.0252745
 4511.45775 2.1301877 0.0254000
 4515.97169 2.1066976 0.0255351
 4520.48534 2.0873823 0.0263564
 4525.01126 2.0757835 0.0272949
 4529.52490 2.0593655 0.0283924
 4534.06340 2.0517983 0.0298601
 4538.58932 2.0582502 0.0320711
 4543.13979 2.0761962 0.0267336
 4547.67799 2.0881069 0.0274348
 4552.22847 2.1068003 0.0283180
 4556.77924 2.1384206 0.0296588
 4561.32972 2.1219385 0.0311818
 4565.89247 2.1516161 0.0326849
 4570.46750 2.1646547 0.0339338
 4575.03026 2.1672614 0.0348725
 4579.60529 2.1485908 0.0332899
 4584.19260 2.1473978 0.0315753
 4588.76763 2.1640110 0.0286689
 4593.36721 2.1462519 0.0272397
 4597.95452 2.1064031 0.0260953
 4602.55411 2.0993538 0.0254753
 4607.15369 2.0993872 0.0304156
 4611.76556 2.0708134 0.0279261
 4616.37742 2.0533452 0.0266801
 4620.98928 2.0692787 0.0252409
 4625.61343 2.0586326 0.0241147
 4630.23757 2.0386205 0.0231998
 4634.87398 2.0425358 0.0228475
 4639.49813 2.0439672 0.0223363
 4644.14682 2.0446053 0.0220677
 4648.78324 2.0553062 0.0218347
 4653.43164 2.0981152 0.0216240
 4658.09261 2.0882256 0.0214819
 4662.75358 2.0916617 0.0212996
 4667.41456 2.1071150 0.0211150
 4672.07553 2.1053073 0.0209770
 4676.74848 2.1022849 0.0208974
 4681.43401 2.0648799 0.0207406
 4686.10726 2.0529385 0.0206604
 4690.79279 2.0556877 0.0209183
 4695.49030 2.0507402 0.0215156
 4700.18811 2.0247197 0.0223346
 4704.88591 2.0598013 0.0212493
 4709.58342 2.0243931 0.0212281
 4714.29350 1.9819847 0.0217763
 4719.01586 1.9512491 0.0224955
 4723.73793 1.9265031 0.0232744
 4728.46029 1.9164993 0.0239449
 4733.18235 1.9258198 0.0244750
 4737.91699 1.9379213 0.0247097
 4742.65133 1.9253125 0.0244172
 4747.39824 1.8857661 0.0239770
 4752.14486 1.8744447 0.0233418
 4756.90405 1.8877935 0.0226357
 4761.65067 1.8793826 0.0220004
 4766.42214 1.8928885 0.0214462
 4771.18104 1.9039062 0.0209257
 4775.95251 1.9358362 0.0207084
 4780.73596 1.9711446 0.0212654
 4785.51971 2.0196829 0.0220198
 4790.30316 2.0310690 0.0211657
 4795.08661 2.0408258 0.0205320
 4799.88263 2.0247889 0.0205629
 4804.69064 2.0406127 0.0205889
 4809.48636 2.0605807 0.0206513
 4814.30695 2.0557573 0.0207903
 4819.11495 2.0676775 0.0209098
 4823.93523 2.0663004 0.0210025
 4828.75582 2.0811481 0.0210439
 4833.58837 2.0591249 0.0210650
 4838.42093 2.0367923 0.0210798
 4843.26577 2.0297465 0.0210824
 4848.09863 2.0307102 0.0210766
 4852.95575 2.0214722 0.0211205
 4857.80058 2.0309970 0.0212247
 4862.65770 2.0352702 0.0213645
 4867.52709 2.0416481 0.0215853
 4872.39648 2.0339241 0.0218256
 4877.26588 2.0287633 0.0219395
 4882.14784 2.0297284 0.0220514
 4887.02951 2.0393040 0.0221197
 4891.91118 2.0440705 0.0221618
 4896.80513 2.0574565 0.0221323
 4901.69908 2.0605459 0.0220381
 4906.60530 2.0682797 0.0219349
 4911.51153 2.0839250 0.0218339
 4916.41775 2.0959952 0.0217007
 4921.33626 2.1153874 0.0215733
 4926.25476 2.0975873 0.0214780
 4931.18554 2.0814404 0.0213742
 4936.11632 2.0784302 0.0212622
 4941.05908 2.0700583 0.0217714
 4945.98986 2.0657074 0.0224289
 4950.94519 2.0664537 0.0208607
 4955.90053 2.0534804 0.0207718
 4960.85586 2.0468097 0.0210982
 4965.81120 2.0398076 0.0216135
 4970.77851 2.0371130 0.0222258
 4975.74612 2.0478611 0.0228485
 4980.72601 2.0414171 0.0234359
 4985.70590 2.0305018 0.0246690
 4990.68580 2.0367329 0.0262719
 4995.67766 2.0321393 0.0257285
 5000.68211 2.0266495 0.0240957
 5005.67428 2.0285518 0.0240878
 5010.69070 2.0226212 0.0239998
 5015.69515 2.0123620 0.0240766
 5020.71187 1.9961478 0.0241023
 5025.72859 1.9629395 0.0241416
 5030.75699 1.9415462 0.0249606
 5035.78599 1.9057564 0.0269524
 5040.82757 1.8947024 0.0249429
 5045.86855 1.8841126 0.0234571
 5050.90953 1.8826579 0.0227849
 5055.96308 1.8925188 0.0220907
 5061.01664 1.8967587 0.0214348
 5066.08217 1.9087012 0.0207305
 5071.14771 1.9100595 0.0204470
 5076.21324 1.9120604 0.0205876
 5081.29135 1.9290920 0.0218236
 5086.38144 1.9304702 0.0210566
 5091.45955 1.9396857 0.0204639
 5096.56221 1.9304450 0.0201841
 5101.65230 1.9210957 0.0201650
 5106.75497 1.9109297 0.0199693
 5111.85704 1.9068515 0.0202428
 5116.97168 1.8873134 0.0202337
 5122.08692 1.8692844 0.0202264
 5127.21354 1.8707463 0.0202261
 5132.34076 1.8653469 0.0202276
 5137.47996 1.8661996 0.0202478
 5142.60718 1.8620819 0.0202772
 5147.75836 1.8790313 0.0200971
 5152.89756 1.8794129 0.0201727
 5158.04934 1.8733616 0.0202512
 5163.21309 1.8656662 0.0202703
 5168.37684 1.8777907 0.0205043
 5173.54060 1.8817658 0.0205211
 5178.71693 1.8868968 0.0205693
 5183.89266 1.8810089 0.0204044
 5189.08097 1.8847145 0.0204467
 5194.26928 1.8580952 0.0204766
 5199.47016 1.8484254 0.0204986
 5204.67045 1.8496261 0.0205468
 5209.87134 1.8371552 0.0205692
 5215.08420 1.8287930 0.0207584
 5220.29707 1.8336422 0.0204359
 5225.52191 1.8362826 0.0203276
 5230.74735 1.8332365 0.0201971
 5235.97219 1.8336006 0.0200649
 5241.20961 1.8366882 0.0199286
 5246.44703 1.8475602 0.0198094
 5251.69702 1.8417993 0.0197356
 5256.94642 1.8362908 0.0197378
 5262.20840 1.8382583 0.0197132
 5267.47037 1.8636194 0.0199017
 5272.73234 1.8575300 0.0204411
 5278.00630 1.8611630 0.0211713
 5283.29283 1.8548105 0.0221810
 5288.56738 1.8587337 0.0203430
 5293.86589 1.8509845 0.0205038
 5299.15241 1.8583297 0.0211581
 5304.45092 1.8561209 0.0218640
 5309.76201 1.8496476 0.0228631
 5315.07309 1.8493961 0.0238909
 5320.38417 1.8534826 0.0248386
 5325.70724 1.8628708 0.0259153
 5331.03030 1.8607783 0.0257519
 5336.36594 1.8779386 0.0251460
 5341.70158 1.8750089 0.0242759
 5347.03722 1.8665349 0.0232733
 5352.38484 1.8673105 0.0222879
 5357.74503 1.8605585 0.0215589
 5363.09265 1.8490103 0.0209987
 5368.46482 1.8601736 0.0213162
 5373.82502 1.8510557 0.0223879
 5379.19719 1.8567078 0.0214562
 5384.58194 1.8474911 0.0205814
 5389.96669 1.8358120 0.0200247
 5395.36341 1.8263537 0.0201427
 5400.74816 1.8119644 0.0203649
 5406.15687 1.7869198 0.0204860
 5411.56617 1.7717680 0.0211350
 5416.97548 1.7599694 0.0213263
 5422.38419 1.7587607 0.0213418
 5427.81805 1.7655054 0.0213339
 5433.23933 1.7492783 0.0219461
 5438.67319 1.7403754 0.0230450
 5444.11903 1.7053554 0.0217344
 5449.55289 1.6901503 0.0215335
 5455.01070 1.6872721 0.0219148
 5460.45654 1.6769546 0.0223801
 5465.92693 1.6716973 0.0231128
 5471.38535 1.6872092 0.0234865
 5476.86832 1.6959850 0.0239673
 5482.33871 1.7107302 0.0242259
 5487.82108 1.7051771 0.0235056
 5493.31603 1.7159787 0.0228434
 5498.79900 1.7325964 0.0221560
 5504.30593 1.7447523 0.0214838
 5509.80087 1.7452019 0.0207047
 5515.32038 1.7542282 0.0205119
 5520.82790 1.7661108 0.0200966
 5526.34740 1.7703122 0.0195846
 5531.87889 1.7806597 0.0195717
 5537.41097 1.7621911 0.0206229
 5542.95502 1.7611620 0.0199884
 5548.48651 1.7654606 0.0192742
 5554.04314 1.7736125 0.0192377
 5559.59918 1.7712607 0.0193950
 5565.15581 1.7848076 0.0191179
 5570.72383 1.7924355 0.0190647
 5576.29244 1.7981268 0.0190392
 5581.87363 1.8142675 0.0190474
 5587.45422 1.8135455 0.0190167
 5593.03541 1.8082356 0.0189915
 5598.62798 1.8147711 0.0192044
 5604.23373 1.8203944 0.0189968
 5609.83887 1.8143694 0.0190034
 5615.44462 1.8001288 0.0190107
 5621.06174 1.7904996 0.0190236
 5626.67947 1.7788405 0.0190217
 5632.30977 1.7658525 0.0190262
 5637.93947 1.7485822 0.0190523
 5643.58175 1.7295806 0.0190445
 5649.22343 1.7173398 0.0190403
 5654.87828 1.7003969 0.0188714
 5660.53254 1.6903783 0.0190982
 5666.18680 1.7009916 0.0189258
 5671.85363 1.7207882 0.0189665
 5677.53244 1.7311772 0.0192625
 5683.21185 1.7433199 0.0191410
 5688.89066 1.7459438 0.0192219
 5694.58205 1.7254487 0.0194935
 5700.27284 1.7404852 0.0193410
 5705.97621 1.7496777 0.0193395
 5711.68017 1.7548288 0.0192793
 5717.39552 1.7454007 0.0192404
 5723.11146 1.7305698 0.0192486
 5728.83938 1.7304918 0.0190822
 5734.55533 1.7272270 0.0193243
 5740.29523 1.7303315 0.0193940
 5746.03573 1.7121950 0.0193048
 5751.78820 1.6889187 0.0195958
 5757.54068 1.6665238 0.0196669
 5763.29316 1.6479568 0.0195449
 5769.05821 1.6508924 0.0197972
 5774.82327 1.6573623 0.0195386
 5780.60030 1.6489282 0.0197224
 5786.37733 1.6379361 0.0197217
 5792.16634 1.6213070 0.0194544
 5797.96793 1.5975417 0.0196353
 5803.75754 1.5920832 0.0194220
 5809.55912 1.5978357 0.0194297
 5815.37329 1.5873760 0.0194347
 5821.18685 1.5750237 0.0193625
 5827.01299 1.5548899 0.0193442
 5832.83914 1.5384527 0.0193754
 5838.67786 1.5404364 0.0193937
 5844.50400 1.5363421 0.0194656
 5850.35470 1.5265886 0.0195113
 5856.20479 1.5142775 0.0193965
 5862.06807 1.4992843 0.0196814
 5867.93074 1.4968278 0.0197649
 5873.79402 1.4985237 0.0196888
 5879.66927 1.5052493 0.0199841
 5885.54452 1.4878540 0.0198339
 5891.43175 1.4738996 0.0201312
 5897.31898 1.4705362 0.0206301
 5903.21879 1.4692062 0.0212522
 5909.13117 1.4784094 0.0224056
 5915.04296 1.4904298 0.0210401
 5920.95475 1.4887137 0.0203448
 5926.86713 1.4924777 0.0208920
 5932.80347 1.4952596 0.0218674
 5938.72783 1.4930437 0.0225839
 5944.66417 1.4985136 0.0235018
 5950.61309 1.4980673 0.0243905
 5956.56201 1.4980032 0.0250386
 5962.52291 1.5039032 0.0252075
 5968.48380 1.5148095 0.0245628
 5974.45727 1.4825917 0.0238629
 5980.43075 1.4638525 0.0229283
 5986.40422 1.4748524 0.0218602
 5992.40165 1.4749392 0.0213917
 5998.38770 1.4884108 0.0205731
 6004.38513 1.4817406 0.0210734
 6010.39573 1.4891347 0.0233101
 6016.40574 1.5133516 0.0225870
 6022.41574 1.5218712 0.0222806
 6028.45030 1.5315528 0.0224117
 6034.47289 1.5418807 0.0207385
 6040.50745 1.5594724 0.0209303
 6046.55459 1.5815736 0.0214024
 6052.58915 1.6138768 0.0218124
 6058.64826 1.6265779 0.0227462
 6064.70738 1.6334926 0.0231405
 6070.76649 1.6563643 0.0245588
 6076.83819 1.6739360 0.0259583
 6082.92186 1.6802586 0.0284479
 6089.00553 1.6800677 0.0315040
 6095.08920 1.7058446 0.0291214
 6101.18545 1.7948599 0.0262756
 6107.29367 1.8215462 0.0256138
 6113.40190 1.8407909 0.0265625
 6119.51013 1.8390548 0.0279574
 6125.63033 1.8645817 0.0295032
 6131.75113 1.9221547 0.0343840
 6137.88392 1.8612202 0.0524169
 6144.02868 1.8326561 0.0477113
 6150.17403 1.7771450 0.0427341
 6156.31879 1.7131982 0.0434513
 6162.47613 1.6667613 0.0426900
 6168.63347 1.6506151 0.0394621
 6174.80278 1.6045780 0.0374583
 6180.98467 1.5519323 0.0347511
 6187.16656 1.5166725 0.0395630
 6193.36103 1.5087528 0.0349328
 6199.54292 1.4933157 0.0322186
 6205.74937 1.4736893 0.0300602
 6211.95522 1.4562699 0.0285713
 6218.16166 1.4408588 0.0273106
 6224.38069 1.4466716 0.0268835
 6230.61109 1.4654888 0.0278571
 6236.84209 1.4630702 0.0272798
 6243.07309 1.4580944 0.0266012
 6249.31607 1.4747436 0.0263722
 6255.57163 1.4791732 0.0262012
 6261.82719 1.4874452 0.0260810
 6268.08274 1.4939048 0.0259534
 6274.35028 1.5173385 0.0261873
 6280.63039 1.5339519 0.0260573
 6286.91050 1.5709327 0.0258907
 6293.20259 1.5725127 0.0259238
 6299.49468 1.5704575 0.0258236
 6305.78677 1.5804204 0.0258548
 6312.10401 1.5852619 0.0255301
 6318.40808 1.5740341 0.0250809
 6324.72533 1.5779859 0.0252707
 6331.05395 1.5828736 0.0249163
 6337.38317 1.5801930 0.0250771
 6343.72437 1.5776021 0.0255981
 6350.06557 1.5874881 0.0261134
 6356.41935 1.5571012 0.0264914
 6362.77252 1.5301194 0.0269192
 6369.13888 1.5093910 0.0270329
 6375.50463 1.4960443 0.0268601
 6381.88237 1.4904510 0.0263207
 6388.26070 1.4846774 0.0254874
 6394.65101 1.4825461 0.0246808
 6401.05390 1.4580328 0.0238296
 6407.44421 1.4545935 0.0230483
 6413.85907 1.4533659 0.0224045
 6420.27394 1.4647324 0.0220602
 6426.68880 1.4808137 0.0218779
 6433.11565 1.4864336 0.0217159
 6439.55507 1.5005512 0.0216631
 6445.99449 1.5164437 0.0217793
 6452.43391 1.5056471 0.0212013
 6458.88590 1.4989409 0.0216195
 6465.34988 1.4961183 0.0219161
 6471.81385 1.4955204 0.0218844
 6478.28981 1.4608703 0.0216939
 6484.76636 1.4514530 0.0221037
 6491.25429 1.4525406 0.0227430
 6497.74282 1.4628806 0.0234486
 6504.24393 1.4564978 0.0242094
 6510.74444 1.4400550 0.0249947
 6517.25752 1.4293064 0.0256481
 6523.77061 1.4062555 0.0261906
 6530.29567 1.4132383 0.0265485
 6536.83331 1.4219307 0.0262580
 6543.37095 1.4319856 0.0258149
 6549.90860 1.4182878 0.0252748
 6556.45821 1.3981752 0.0246671
 6563.02041 1.3906285 0.0239363
 6569.58261 1.3696935 0.0230995
 6576.15678 1.3622471 0.0223912
 6582.71897 1.3699293 0.0224180
 6589.30573 1.3720187 0.0221750
 6595.90445 1.3736159 0.0216795
 6602.49121 1.3676062 0.0212197
 6609.10191 1.3648880 0.0210542
 6615.70124 1.3737595 0.0208932
 6622.32452 1.3693643 0.0206692
 6628.94781 1.3481240 0.0205144
 6635.57109 1.3295757 0.0203400
 6642.20695 1.3036438 0.0199985
 6648.85479 1.2767577 0.0198860
 6655.50263 1.2539527 0.0197756
 6662.16305 1.2400681 0.0196056
 6668.82286 1.2114269 0.0193502
 6675.49586 1.1910169 0.0193716
 6682.16825 1.1640466 0.0193383
 6688.85262 1.1611500 0.0193057
 6695.53759 1.1619034 0.0191241
 6702.23454 1.1720996 0.0191037
 6708.93149 1.1822717 0.0191056
 6715.64102 1.1967313 0.0191276
 6722.36252 1.2190752 0.0189841
 6729.08403 1.2417924 0.0190035
 6735.81751 1.2708527 0.0190918
 6742.55159 1.3030146 0.0191712
 6749.29765 1.3159105 0.0192463
 6756.04371 1.3223391 0.0193110
 6762.80175 1.3394655 0.0193751
 6769.56038 1.3327116 0.0194478
 6776.33100 1.3458622 0.0196502
 6783.10161 1.3481727 0.0196915
 6789.88421 1.3677722 0.0196191
 6796.67938 1.3556788 0.0196055
 6803.47454 1.3566338 0.0197035
 6810.28169 1.3507377 0.0198467
 6817.08944 1.3587255 0.0199951
 6823.90916 1.3531390 0.0201162
 6830.74087 1.3408769 0.0200434
 6837.56059 1.3311911 0.0202544
 6844.40487 1.3287151 0.0201404
 6851.24855 1.3149337 0.0196733
 6858.10541 1.3075079 0.0194680
 6864.96167 1.3011566 0.0194150
 6871.81792 1.2859091 0.0191397
 6878.69934 1.2740964 0.0189225
 6885.58015 1.2516195 0.0189348
 6892.46096 1.2396089 0.0189049
 6899.35435 1.2130126 0.0191276
 6906.24774 1.2112035 0.0194054
 6913.15311 1.1984779 0.0197345
 6920.07105 1.1988684 0.0195176
 6926.98840 1.1651461 0.0192278
 6933.91892 1.1556056 0.0193756
 6940.86082 1.1447899 0.0195796
 6947.79134 1.1355441 0.0198618
 6954.74582 1.1145560 0.0199469
 6961.70030 1.0960798 0.0201038
 6968.65478 1.0754840 0.0204633
 6975.63381 1.0747257 0.0204986
 6982.60087 1.0597758 0.0203894
 6989.59188 1.0579569 0.0195378
 6996.58349 1.0502921 0.0191931
 7003.57510 1.0537703 0.0187605
 7010.57869 1.0597945 0.0184389
 7017.59425 1.0584539 0.0180873
 7024.61042 1.0568990 0.0179350
 7031.63856 1.0470196 0.0178939
 7038.66671 1.0490721 0.0181347
 7045.70683 1.0408069 0.0188545
 7052.74755 1.0229897 0.0176554
 7059.80025 1.0203753 0.0171711
 7066.86492 1.0210474 0.0170131
 7073.93020 1.0216833 0.0169732
 7081.00745 1.0199693 0.0168945
 7088.08471 1.0189775 0.0167955
 7095.17394 1.0254130 0.0167256
 7102.26377 1.0348579 0.0166809
 7109.37755 1.0500482 0.0167248
 7116.47936 1.0451339 0.0167252
 7123.60573 1.0516468 0.0165287
 7130.71951 1.0652211 0.0165078
 7137.85845 1.0742702 0.0163763
 7144.99680 1.0725460 0.0161385
 7152.13514 1.0829941 0.0160379
 7159.28606 1.0897001 0.0160308
 7166.44955 1.0860012 0.0161847
 7173.61245 1.0951293 0.0163395
 7180.78792 1.0941486 0.0166087
 7187.97537 1.1030802 0.0163860
 7195.16283 1.1143177 0.0162786
 7202.35028 1.1138588 0.0162526
 7209.56288 1.1137967 0.0162446
 7216.76231 1.1184213 0.0163316
 7223.98690 1.1274368 0.0163796
 7231.21148 1.1334064 0.0164335
 7238.43607 1.1250556 0.0165291
 7245.68461 1.1210772 0.0164640
 7252.92177 1.1156948 0.0163942
 7260.18288 1.1142538 0.0164709
 7267.44400 1.1067631 0.0163834
 7274.70512 1.0987514 0.0162269
 7281.97881 1.0912389 0.0158407
 7289.26449 1.0944335 0.0155240
 7296.55016 1.0878706 0.0152946
 7303.84781 1.0828459 0.0150728
 7311.15863 1.0767821 0.0147565
 7318.46886 1.0707387 0.0146074
 7325.77909 1.0664189 0.0144586
 7333.11387 1.0531110 0.0142350
 7340.44865 1.0310596 0.0143251
 7347.78344 1.0156811 0.0142999
 7355.13020 1.0103457 0.0141169
 7362.48953 0.9997829 0.0138376
 7369.84887 0.9845349 0.0137961
 7377.22079 0.9682777 0.0139924
 7384.60468 0.9699030 0.0142225
 7391.98857 0.9747294 0.0143972
 7399.38444 0.9739338 0.0145894
 7406.78091 0.9674811 0.0148240
 7414.18936 0.9817637 0.0149798
 7421.59721 0.9915416 0.0151152
 7429.01823 1.0007288 0.0153306
 7436.45124 1.0045184 0.0155012
 7443.88424 1.0119447 0.0155419
 7451.32922 1.0171398 0.0154601
 7458.78678 1.0197320 0.0152219
 7466.24433 1.0187695 0.0148453
 7473.71387 1.0117296 0.0146375
 7481.18341 1.0006926 0.0144197
 7488.66552 1.0034875 0.0143023
 7496.14763 0.9987076 0.0139398
 7503.65430 0.9991971 0.0133878
 7511.16037 0.9975529 0.0129152
 7518.66704 1.0084008 0.0127591
 7526.18568 1.0222079 0.0130522
 7533.71691 1.0309985 0.0132554
 7541.24813 1.0306233 0.0135499
 7548.79133 1.0405929 0.0136674
 7556.33453 1.0544562 0.0137817
 7563.89031 1.0520688 0.0140942
 7571.45807 1.0580770 0.0144696
 7579.02582 1.0663068 0.0147862
 7586.60616 1.0807946 0.0151573
 7594.19847 1.0924799 0.0154155
 7601.79078 1.1029027 0.0155527
 7609.39567 1.1164349 0.0157476
 7616.99996 1.1253494 0.0159460
 7624.61682 1.1341275 0.0160666
 7632.24627 1.1361216 0.0161746
 7639.87571 1.1439312 0.0162822
 7647.51713 1.1690921 0.0160445
 7655.17053 1.1884161 0.0157779
 7662.81195 1.2135637 0.0153657
 7670.47793 1.2366914 0.0151658
 7678.15648 1.2557952 0.0150729
 7685.83444 1.2682171 0.0148308
 7693.52497 1.2834495 0.0145412
 7701.21550 1.2977144 0.0142851
 7708.91801 1.3111793 0.0141241
 7716.62112 1.3345315 0.0139398
 7724.33620 1.3491110 0.0138143
 7732.06327 1.3601114 0.0136370
 7739.80291 1.3603326 0.0132808
 7747.54255 1.3607949 0.0129529
 7755.28219 1.3571734 0.0127648
 7763.04639 1.3464848 0.0126993
 7770.81059 1.3386461 0.0126667
 7778.57419 1.3194925 0.0125502
 7786.35096 1.2995297 0.0125449
 7794.13971 1.2820876 0.0127888
 7801.94044 1.2600168 0.0128667
 7809.74117 1.2244852 0.0125369
 7817.54190 1.1993129 0.0125088
 7825.36779 1.1707650 0.0127613
 7833.19307 1.1422251 0.0128261
 7841.03093 1.1222349 0.0127845
 7848.86820 1.0986030 0.0127290
 7856.71804 1.0779459 0.0128177
 7864.58045 1.0663506 0.0129659
 7872.43029 1.0557328 0.0131237
 7880.30529 1.0383377 0.0133119
 7888.19166 1.0298750 0.0132483
 7896.07863 1.0238243 0.0131621
 7903.97759 1.0248048 0.0129522
 7911.87654 1.0254550 0.0127266
 7919.80004 1.0234112 0.0124470
 7927.71157 1.0101477 0.0122153
 7935.63507 1.0066693 0.0120540
 7943.58313 1.0073497 0.0121966
 7951.51862 0.9988180 0.0119819
 7959.46668 0.9796293 0.0115468
 7967.42732 0.9765202 0.0117607
 7975.39993 0.9673604 0.0122481
 7983.37255 0.9617221 0.0125945
 7991.35714 0.9600540 0.0124130
 7999.35431 0.9552417 0.0126760
 8007.35148 0.9537553 0.0134298
 8015.36123 0.9642685 0.0144004
 8023.37038 0.9557434 0.0156086
 8031.39210 0.9508360 0.0167329
 8039.42641 0.9516459 0.0178630
 8047.47209 0.9566517 0.0187544
 8055.51837 0.9718357 0.0190505
 8063.57723 0.9698312 0.0184569
 8071.63549 0.9698173 0.0181163
 8079.70632 0.9615065 0.0176347
 8087.78914 0.9604344 0.0171879
 8095.88453 0.9401101 0.0168470
 8103.97992 0.9197104 0.0164549
 8112.07531 0.9081144 0.0162535
 8120.19466 0.8883349 0.0179119
 8128.31460 0.8864037 0.0166822
 8136.44653 0.8820930 0.0159224
 8144.57905 0.8916449 0.0153805
 8152.72295 0.8954817 0.0153533
 8160.88003 0.8873112 0.0156554
 8169.03651 0.8857503 0.0147384
 8177.20497 0.8783812 0.0151405
 8185.38660 0.8794242 0.0142679
 8193.56764 0.8797461 0.0139579
 8201.76065 0.8835711 0.0139764
 8209.96624 0.8918293 0.0141837
 8218.17243 0.8923496 0.0141272
 8226.38999 0.8938228 0.0146222
 8234.62014 0.8860543 0.0150248
 8242.85028 0.8746942 0.0152060
 8251.10498 0.8660839 0.0154684
 8259.34770 0.8602495 0.0155585
 8267.61438 0.8693888 0.0153752
 8275.88166 0.8596410 0.0147524
 8284.16091 0.8567311 0.0141474
 8292.44017 0.8530634 0.0137688
 8300.73140 0.8484129 0.0134793
 8309.03521 0.8426582 0.0136366
 8317.33902 0.8302845 0.0137785
 8325.66738 0.8239047 0.0131959
 8333.98377 0.8209575 0.0137486
 8342.32411 0.8156581 0.0134714
 8350.66506 0.8058687 0.0133286
 8359.01738 0.8047312 0.0132451
 8367.38287 0.8081175 0.0132621
 8375.74777 0.7987293 0.0132060
 8384.12525 0.7883005 0.0134549
 8392.50272 0.7843303 0.0137865
 8400.89218 0.7858441 0.0142576
 8409.29421 0.7844107 0.0154156
 8417.70821 0.7867863 0.0159491
 8426.12282 0.7849203 0.0161261
 8434.54881 0.7868311 0.0162044
 8442.98797 0.7955865 0.0162828
 8451.42653 0.7907912 0.0159672
 8459.88965 0.7925155 0.0159396
 8468.34079 0.8017460 0.0155521
 8476.81589 0.7962138 0.0145594
 8485.29158 0.8003709 0.0138258
 8493.76728 0.7967482 0.0135053
 8502.26693 0.7977278 0.0136996
 8510.76718 0.7975571 0.0136849
 8519.27941 0.8024412 0.0137412
 8527.80421 0.8003843 0.0141713
 8536.32842 0.8032291 0.0145136
 8544.86520 0.8076775 0.0147933
 8553.41456 0.8219029 0.0152606
 8561.96393 0.8250305 0.0156241
 8570.52526 0.8183257 0.0159114
 8579.09858 0.8168404 0.0160983
 8587.68447 0.8099439 0.0161593
 8596.27037 0.8107209 0.0161702
 8604.85626 0.8121155 0.0163897
 8613.46671 0.8017856 0.0166098
 8622.08914 0.8008837 0.0171691
 8630.69959 0.7939321 0.0169755
 8639.33459 0.7803956 0.0166288
 8647.98217 0.7761926 0.0164621
 8656.61717 0.7635093 0.0163171
 8665.27673 0.7555799 0.0167080
 8673.94827 0.7522662 0.0168500
 8682.61981 0.7535183 0.0172366
 8691.30392 0.7565626 0.0177098
 8700.00001 0.7636199 0.0179034
 8708.69671 0.7682813 0.0178036
 8717.40537 0.7754861 0.0182603
 8726.12602 0.7882997 0.0178935
 8734.84667 0.7924351 0.0183881
 8743.57989 0.7866710 0.0179956
 8752.32510 0.7894809 0.0174183
 8761.08287 0.7906879 0.0166290
 8769.84065 0.7999667 0.0164676
 8778.61041 0.7851436 0.0156606
 8787.39215 0.7915457 0.0154998
 8796.17448 0.8040245 0.0153267
 8804.98137 0.8082623 0.0154967
 8813.78766 0.7942100 0.0151732
 8822.59455 0.7963069 0.0147925
 8831.41342 0.8048319 0.0146730
 8840.25684 0.8161683 0.0147484
 8849.08829 0.8105630 0.0150430
 8857.94369 0.8259966 0.0145195
 8866.79969 0.8453988 0.0141467
 8875.66766 0.8693024 0.0138744
 8884.54822 0.8849790 0.0136082
 8893.42817 0.9173436 0.0132643
 8902.32071 0.9396992 0.0129470
 8911.22582 0.9548057 0.0127015
 8920.14231 0.9754428 0.0125060
 8929.05939 0.9889917 0.0124340
 8937.98906 1.0033987 0.0121514
 8946.93070 1.0092686 0.0117687
 8955.87234 1.0145156 0.0116734
 8964.82597 1.0124687 0.0117044
 8973.79216 1.0056210 0.0117910
 8982.77034 0.9982985 0.0115582
 8991.74912 0.9857516 0.0114805
 9000.73987 0.9599095 0.0113546
 9009.74260 0.9271636 0.0113330
 9018.75791 0.8979324 0.0113136
 9027.77262 0.8807359 0.0113424
 9036.80050 0.8589088 0.0114094
 9045.84037 0.8328539 0.0113995
 9054.89221 0.8084764 0.0114271
 9063.94405 0.7941443 0.0114271
 9073.00847 0.7717445 0.0114001
 9082.07229 0.7650245 0.0115673
 9091.16126 0.7546901 0.0118158
 9100.25023 0.7503518 0.0119777
 9109.35118 0.7519440 0.0114830
 9118.46471 0.7440063 0.0111646
 9127.57764 0.7327645 0.0111950
 9136.70315 0.7281615 0.0114965
 9145.84123 0.7344368 0.0120644
 9154.99129 0.7363299 0.0126402
 9164.15393 0.7263948 0.0130871
 9173.31597 0.7235885 0.0130977
 9182.49059 0.7177197 0.0134104
 9191.66521 0.7186228 0.0139120
 9200.86438 0.7156686 0.0144577
 9210.06355 0.7129166 0.0149509
 9219.27530 0.7101902 0.0147426
 9228.49903 0.7118283 0.0146018
 9237.72275 0.7094132 0.0143415
 9246.95846 0.7075524 0.0143948
 9256.20674 0.7058678 0.0143178
 9265.46700 0.7040892 0.0145265
 9274.72786 0.7135903 0.0145896
 9284.00070 0.7039711 0.0145628
 9293.28551 0.6882911 0.0142393
 9302.58290 0.6841797 0.0139156
 9311.88030 0.6716324 0.0138746
 9321.20224 0.6714200 0.0140946
 9330.52359 0.6863602 0.0146609
 9339.85812 0.6790534 0.0137713
 9349.19204 0.6742446 0.0133468
 9358.53854 0.6740285 0.0131481
 9367.89702 0.6782008 0.0130734
 9377.26808 0.6874063 0.0129826
 9386.65112 0.6886806 0.0124254
 9396.03415 0.6913287 0.0118538
 9405.42977 0.6993542 0.0116332
 9414.83736 0.7032279 0.0118172
 9424.24495 0.7057847 0.0117339
 9433.67709 0.7269354 0.0115292
 9443.10924 0.7507113 0.0115490
 9452.55396 0.7676281 0.0119538
 9462.01066 0.7812908 0.0122147
 9471.46736 0.8106485 0.0123475
 9480.94862 0.8346632 0.0120422
 9490.41790 0.8562093 0.0122386
 9499.91113 0.8776151 0.0126655
 9509.41694 0.8889405 0.0127796
 9518.92275 0.8920233 0.0128285
 9528.44114 0.8913795 0.0133412
 9537.97151 0.8878805 0.0141373
 9547.51385 0.8823114 0.0156038
 9557.05619 0.8666278 0.0161386
 9566.61112 0.8359790 0.0160858
 9576.17861 0.8097288 0.0159303
 9585.75809 0.7765991 0.0158936
 9595.33757 0.7384396 0.0156607
 9604.94100 0.7151852 0.0150738
 9614.54503 0.7119147 0.0146844
 9624.16164 0.6997949 0.0138292
 9633.78963 0.6912851 0.0123877
 9643.41821 0.6959286 0.0116398
 9653.05878 0.6960666 0.0110523
 9662.72449 0.6918915 0.0109169
 9672.37704 0.6941522 0.0112430
 9682.05473 0.6913453 0.0119099
 9691.73243 0.6939291 0.0125100
 9701.43468 0.6986473 0.0126917
 9711.13633 0.6946907 0.0129337
 9720.83859 0.6813065 0.0133159
 9730.56539 0.6868802 0.0137642
 9740.29160 0.6766460 0.0138456
 9750.03038 0.6787600 0.0139317
 9759.78175 0.6786335 0.0137223
 9769.54509 0.6692650 0.0135625
 9779.30843 0.6622129 0.0133436
 9789.09632 0.6519811 0.0133931
 9798.88422 0.6478253 0.0136476
 9808.68469 0.6497840 0.0138043
 9818.49714 0.6446218 0.0136697
 9828.30959 0.6502305 0.0138090
 9838.14659 0.6514992 0.0133114
 9847.98360 0.6415516 0.0132511
 9857.82060 0.6393003 0.0133094
 9867.68156 0.6455836 0.0137599
 9877.55570 0.6403989 0.0135653
 9887.42924 0.6262625 0.0129094
 9897.32793 0.6086507 0.0127339
 9907.21345 0.6100297 0.0125269
 9917.12412 0.6142974 0.0124776
 9927.04737 0.6173881 0.0122461
 9936.97001 0.6226174 0.0120435
 9946.90524 0.6138322 0.0115124
 9956.85244 0.6087859 0.0112440
 9966.81222 0.6077536 0.0109743
 9976.78398 0.6090810 0.0109669
 9986.75574 0.6071196 0.0108645
 9996.74008 0.6108792 0.0110997
 10006.74897 0.6112533 0.0112832
 10016.74528 0.6178846 0.0115886
 10026.76615 0.6180682 0.0114182
 10036.79960 0.6093066 0.0116200
 10046.83244 0.6113707 0.0119037
 10056.87846 0.6112378 0.0113534
 10066.93647 0.5995502 0.0108813
 10077.00644 0.5889782 0.0102890
 10087.08840 0.5875438 0.0098088
 10097.17036 0.5913453 0.0094862
 10107.26549 0.5919833 0.0092461
 10117.37140 0.5959740 0.0091033
 10127.49049 0.5880944 0.0087639
 10137.62276 0.5833472 0.0086090
 10147.75383 0.5841621 0.0085387
 10157.91005 0.5821896 0.0085248
 10168.06507 0.5813748 0.0085046
 10178.23327 0.5767288 0.0084484
 10188.41345 0.5832095 0.0084091
 10198.60680 0.5860993 0.0083742
 10208.79896 0.5894173 0.0085100
 10219.00429 0.5935779 0.0086707
 10229.23357 0.5915204 0.0089761
 10239.45088 0.5927436 0.0090267
 10249.69335 0.5821697 0.0088558
 10259.94659 0.5758671 0.0089962
 10270.21301 0.5842102 0.0093168
 10280.47943 0.5991533 0.0097759
 10290.75783 0.6125385 0.0104326
 10301.04820 0.6328738 0.0111672
 10311.35175 0.6506431 0.0122374
 10321.66728 0.6695906 0.0129459
 10331.98281 0.6915611 0.0138299
 10342.32230 0.7247027 0.0147956
 10352.66179 0.7526103 0.0155331
 10363.01445 0.7859903 0.0154830
 10373.37909 0.8082275 0.0151367
 10383.75571 0.8115990 0.0141428
 10394.14430 0.8327064 0.0139915
 10404.53290 0.8536062 0.0139032
 10414.93467 0.8582768 0.0138949
 10425.34842 0.8603210 0.0141565
 10435.77415 0.8756111 0.0139305
 10446.21185 0.8674236 0.0140480
 10456.66154 0.8784302 0.0137622
 10467.12440 0.8991979 0.0136943
 10477.58726 0.9174404 0.0142543
 10488.06210 0.9233826 0.0143633
 10498.54891 0.9323063 0.0141957
 10509.04771 0.9267914 0.0137243
 10519.55968 0.9197936 0.0135833
 10530.08363 0.9071735 0.0136998
 10540.60757 0.9147478 0.0136384
 10551.15548 0.9112590 0.0136793
 10561.70458 0.9040344 0.0134432
 10572.26446 0.9193069 0.0128831
 10582.83752 0.9129965 0.0126525
 10593.42256 0.9189213 0.0123858
 10604.02077 0.9184711 0.0123714
 10614.61779 0.9112243 0.0120262
 10625.23996 0.9058288 0.0118960
 10635.86213 0.8965033 0.0115845
 10646.49627 0.8883196 0.0113577
 10657.14240 0.8703744 0.0114496
 10667.80170 0.8515471 0.0113190
 10678.47178 0.8446226 0.0114451
 10689.14306 0.8231763 0.0116530
 10699.83949 0.8008950 0.0122482
 10710.54670 0.7652550 0.0123741
 10721.24194 0.7420099 0.0127389
 10731.97431 0.7188808 0.0125055
 10742.70667 0.6943628 0.0125216
 10753.45222 0.6772147 0.0124285
 10764.20854 0.6480836 0.0120135
 10774.96606 0.6390893 0.0119102
 10785.74634 0.6287818 0.0116851
 10796.52782 0.6152114 0.0116447
 10807.32247 0.6130201 0.0113941
 10818.12790 0.6015823 0.0112264
 10828.95849 0.5930977 0.0110732
 10839.77710 0.5892984 0.0112472
 10850.61967 0.5795739 0.0115180
 10861.47421 0.5744655 0.0118662
 10872.34193 0.5720522 0.0124145
 10883.20965 0.5665373 0.0127387
 10894.08815 0.5656025 0.0129399
 10904.98102 0.5664436 0.0131661
 10915.89666 0.5723571 0.0134647
 10926.80031 0.5710807 0.0136064
 10937.72912 0.5736105 0.0140106
 10948.66990 0.5716664 0.0140804
 10959.62386 0.5686680 0.0140773
 10970.58861 0.5613887 0.0142553
 10981.55455 0.5585979 0.0145682
 10992.53246 0.5503590 0.0149905
 11003.53434 0.5564308 0.0158483
 11014.53621 0.5563234 0.0164688
 11025.55126 0.5674084 0.0165070
 11036.57709 0.5650386 0.0166296
 11047.61610 0.5590574 0.0166805
 11058.65511 0.5563702 0.0167501
 11069.71927 0.5560327 0.0169612
 11080.79540 0.5583517 0.0174762
 11091.87035 0.5520995 0.0178020
 11102.95846 0.5566815 0.0183621
 11114.07173 0.5589055 0.0188091
 11125.18380 0.5634567 0.0186483
 11136.30905 0.5416931 0.0186972
 11147.44628 0.5443982 0.0187904
 11158.59548 0.5474241 0.0188301
 11169.75667 0.5692561 0.0193396
 11180.91905 0.5747464 0.0194349
 11192.10538 0.5732834 0.0198874
 11203.29172 0.5781378 0.0210572
 11214.50201 0.5770908 0.0220460
 11225.71231 0.5759609 0.0224055
 11236.93578 0.5707185 0.0228492
 11248.18320 0.5701849 0.0234844
 11259.43063 0.5727243 0.0242119
 11270.69003 0.5804411 0.0254013
 11281.96261 0.5720568 0.0277234
 11293.24716 0.5633139 0.0301158
 11304.53172 0.5533991 0.0329639
 11315.84024 0.5419059 0.0354477
 11327.14875 0.5367013 0.0381253
 11338.48242 0.5320029 0.0444609
 11349.81608 0.5093409 0.0510083
 11361.17371 0.4733646 0.0631126
