# SOURCE  = 'Quimby et al. 2018' /                                                
# OBJECT  = 'PTF11rks'           /                                                
# Z       =             0.192400 / wavelengths in OBSERVER FRAME                 
# NORM    =          4.67300E-17 / fluxes divided by norm                         
# CLIPPED =                    1 / galaxy emission lines removed                  
# SMOOTHED=                    1 / spectrum has been smoothed                     
# COLUMN01= 'Wavelength (Angstrom)' /                                             
# COLUMN02= 'Flux Density (erg/s/cm2/A)' /                                        
# COLUMN03= 'Flux Density Uncertainty (erg/s/cm2/A)' /                            
# END                                                                             
# 
# 
# 
# 
# 
# 
# 
# 
# 
# 
# Converted to Observer Frame using z=0.193
 3758.41815 2.4004850 0.0403693
 3762.17348 2.3931725 0.0388386
 3765.94341 2.3948781 0.0377085
 3769.71298 2.3965788 0.0366281
 3773.48255 2.3992095 0.0355749
 3777.25248 2.4149201 0.0345854
 3781.03629 2.4276216 0.0336286
 3784.80621 2.4373703 0.0327326
 3788.59002 2.4349425 0.0318979
 3792.38808 2.4289155 0.0311059
 3796.17224 2.4325888 0.0303550
 3799.97029 2.4351933 0.0296491
 3803.76834 2.4437344 0.0287585
 3807.58098 2.4463928 0.0281129
 3811.37903 2.4665277 0.0274938
 3815.19132 2.4909613 0.0269503
 3819.01786 2.5181034 0.0264119
 3822.83049 2.5271726 0.0259043
 3826.65703 2.5409315 0.0254411
 3830.48356 2.5496442 0.0249566
 3834.31009 2.5566752 0.0244894
 3838.15121 2.5702364 0.0238932
 3841.99198 2.5818510 0.0234615
 3845.83275 2.6060543 0.0230564
 3849.67352 2.6295838 0.0227219
 3853.52853 2.6416476 0.0223809
 3857.36964 2.6544046 0.0220720
 3861.23889 2.6756866 0.0218423
 3865.09390 2.6945505 0.0215895
 3868.96315 2.6903641 0.0213555
 3872.83240 2.6945491 0.0210277
 3876.70165 2.7154260 0.0207796
 3880.58513 2.7219760 0.0205312
 3884.45438 2.7442608 0.0203587
 3888.33787 2.7562661 0.0201528
 3892.23560 2.7563131 0.0200250
 3896.11943 2.7681806 0.0198278
 3900.01716 2.7774675 0.0194949
 3903.91489 2.7763863 0.0193408
 3907.82685 2.7757075 0.0191217
 3911.73882 2.7721422 0.0188951
 3915.65079 2.7672932 0.0187173
 3919.56275 2.7796314 0.0184771
 3923.47472 2.7819984 0.0182537
 3927.40092 2.7878971 0.0179459
 3931.32713 2.7963078 0.0177132
 3935.26723 2.8149590 0.0174948
 3939.19343 2.8208125 0.0172478
 3943.13388 2.8262327 0.0170259
 3947.08856 2.8344100 0.0168391
 3951.02901 2.8635776 0.0164541
 3954.98369 2.8901367 0.0162601
 3958.93837 2.9237812 0.0160331
 3962.89306 2.9604208 0.0157951
 3966.86198 2.9882791 0.0155884
 3970.83056 3.0236685 0.0153515
 3974.79948 3.0656540 0.0150472
 3978.76840 3.1004643 0.0148406
 3982.75157 3.1320853 0.0146570
 3986.73473 3.1633990 0.0145349
 3990.71789 3.1898992 0.0143769
 3994.71495 3.2279844 0.0142778
 3998.71235 3.2669394 0.0142350
 4002.70975 3.2972300 0.0144506
 4006.70715 3.3271778 0.0140257
 4010.71844 3.3373220 0.0137931
 4014.73008 3.3555522 0.0137068
 4018.74173 3.3758960 0.0135543
 4022.75302 3.3899405 0.0135892
 4026.77890 3.4093018 0.0135824
 4030.80478 3.4235640 0.0136197
 4034.84455 3.4406550 0.0136160
 4038.87043 3.4554029 0.0135294
 4042.91055 3.4626017 0.0135511
 4046.96456 3.4662766 0.0134937
 4051.00468 3.4705675 0.0134674
 4055.05904 3.4682813 0.0133770
 4059.11305 3.4741428 0.0132446
 4063.16741 3.4755044 0.0130959
 4067.23566 3.4757121 0.0129849
 4071.30426 3.4830103 0.0128004
 4075.37286 3.4763880 0.0126464
 4079.45535 3.4718473 0.0123626
 4083.52394 3.4717746 0.0121950
 4087.60643 3.4720237 0.0122650
 4091.70351 3.4623499 0.0121456
 4095.78600 3.4520755 0.0116981
 4099.88307 3.4408393 0.0115196
 4103.99404 3.4267266 0.0114606
 4108.09112 3.4081895 0.0115665
 4112.20209 3.3980205 0.0119173
 4116.31306 3.3681600 0.0117562
 4120.42437 3.3571420 0.0115105
 4124.54958 3.3398643 0.0115213
 4128.67513 3.3340116 0.0116370
 4132.80034 3.3364837 0.0116930
 4136.93979 3.3309269 0.0118998
 4141.07958 3.3313763 0.0120547
 4145.21903 3.3292668 0.0122547
 4149.35847 3.3180828 0.0123987
 4153.51251 3.3074455 0.0124759
 4157.66619 3.3017278 0.0125103
 4161.81988 3.2966726 0.0124170
 4165.98815 3.2920880 0.0120605
 4170.15608 3.2877858 0.0118342
 4174.32400 3.2847650 0.0116490
 4178.49227 3.2825816 0.0113710
 4182.67444 3.2918773 0.0110843
 4186.85660 3.2885914 0.0108611
 4191.03877 3.2929859 0.0107816
 4195.23517 3.2900059 0.0107006
 4199.43192 3.2889521 0.0106636
 4203.62832 3.2943294 0.0104752
 4207.83897 3.2973194 0.0103650
 4212.03537 3.2866988 0.0104625
 4216.24601 3.2835619 0.0108793
 4220.47124 3.2798069 0.0109483
 4224.69612 3.2718251 0.0104923
 4228.92101 3.2794044 0.0106004
 4233.14589 3.2772076 0.0107210
 4237.38501 3.2752171 0.0109099
 4241.60989 3.2743220 0.0109814
 4245.86325 3.2687526 0.0111279
 4250.10237 3.2529850 0.0115596
 4254.35573 3.2511015 0.0114051
 4258.60909 3.2416346 0.0112343
 4262.86245 3.2539370 0.0110567
 4267.13005 3.2565403 0.0110025
 4271.39765 3.2578037 0.0108617
 4275.66525 3.2602704 0.0107809
 4279.94709 3.2658474 0.0107529
 4284.22893 3.2690370 0.0105741
 4288.51077 3.2648039 0.0105440
 4292.79261 3.2712657 0.0105498
 4297.08869 3.2684257 0.0106145
 4301.38476 3.2740388 0.0109113
 4305.69508 3.2587292 0.0103232
 4309.99116 3.2321854 0.0101509
 4314.30148 3.2162006 0.0103023
 4318.62603 3.1936622 0.0103639
 4322.93600 3.1638210 0.0101092
 4327.26056 3.1376879 0.0100907
 4331.58512 3.1025457 0.0101540
 4335.92391 3.0685310 0.0101907
 4340.26271 3.0445557 0.0102403
 4344.60116 3.0025103 0.0104862
 4348.93995 2.9709537 0.0105460
 4353.29299 2.9344103 0.0102115
 4357.64602 2.9047861 0.0101646
 4361.99906 2.8650193 0.0100015
 4366.36598 2.8284633 0.0098316
 4370.73326 2.7923894 0.0097222
 4375.10053 2.7607975 0.0094483
 4379.48170 2.7211998 0.0093373
 4383.86321 2.6898243 0.0092398
 4388.24472 2.6581182 0.0092215
 4392.62589 2.6327941 0.0094726
 4397.02164 2.6147897 0.0091501
 4401.41740 2.5942788 0.0090634
 4405.82704 2.5739348 0.0090972
 4410.22279 2.5612168 0.0090413
 4414.63278 2.5499842 0.0090492
 4419.05667 2.5402715 0.0090161
 4423.48090 2.5314543 0.0089492
 4427.89054 2.5277407 0.0089268
 4432.32901 2.5263350 0.0087898
 4436.75290 2.5195687 0.0087817
 4441.19137 2.5089245 0.0087651
 4445.62949 2.5076458 0.0086190
 4450.08220 2.4980283 0.0086833
 4454.53456 2.4935708 0.0089214
 4458.98727 2.4851909 0.0085965
 4463.43963 2.4820368 0.0084496
 4467.90658 2.4694200 0.0084717
 4472.37318 2.4635139 0.0085529
 4476.85437 2.4592538 0.0085882
 4481.32097 2.4570725 0.0087591
 4485.80181 2.4453716 0.0087955
 4490.29724 2.4340267 0.0089786
 4494.77808 2.4260902 0.0089614
 4499.27351 2.4152987 0.0089360
 4503.78283 2.3992708 0.0089138
 4508.27791 2.3776698 0.0087034
 4512.78758 2.3617685 0.0085556
 4517.31113 2.3515608 0.0083804
 4521.82045 2.3408904 0.0084808
 4526.34401 2.3361874 0.0080917
 4530.86792 2.3343432 0.0079319
 4535.40571 2.3267210 0.0080267
 4539.94351 2.3190227 0.0081558
 4544.48131 2.3120868 0.0080233
 4549.01945 2.3013701 0.0080905
 4553.57149 2.2943418 0.0081177
 4558.12353 2.2841666 0.0080496
 4562.68980 2.2723217 0.0080788
 4567.24184 2.2614195 0.0079632
 4571.80846 2.2510352 0.0078441
 4576.38898 2.2370992 0.0079833
 4580.95525 2.2129183 0.0076201
 4585.55001 2.1918187 0.0074196
 4590.13052 2.1757264 0.0074016
 4594.72528 2.1598296 0.0073629
 4599.32003 2.1501946 0.0074373
 4603.91479 2.1398046 0.0075736
 4608.52378 2.1350000 0.0078151
 4613.13278 2.1234121 0.0075948
 4617.74177 2.1189625 0.0076074
 4622.36500 2.1172879 0.0075253
 4626.98823 2.1182323 0.0074521
 4631.61147 2.1229732 0.0073578
 4636.23470 2.1238282 0.0072466
 4640.87217 2.1206806 0.0071014
 4645.52388 2.1199460 0.0071341
 4650.16136 2.1237283 0.0071226
 4654.81307 2.1254268 0.0069412
 4659.46478 2.1288750 0.0071015
 4664.13073 2.1260238 0.0074928
 4668.79668 2.1307116 0.0071294
 4673.46263 2.1320636 0.0071054
 4678.14282 2.1369560 0.0072353
 4682.80842 2.1426208 0.0072925
 4687.50285 2.1537030 0.0073885
 4692.18304 2.1615684 0.0075423
 4696.87747 2.1709085 0.0076652
 4701.57190 2.1841075 0.0076769
 4706.28022 2.1987073 0.0075107
 4710.98889 2.2059116 0.0073442
 4715.69756 2.2226834 0.0071465
 4720.40623 2.2304618 0.0069522
 4725.12879 2.2385032 0.0067470
 4729.85169 2.2427807 0.0066954
 4734.58884 2.2478602 0.0067917
 4739.32599 2.2553308 0.0066989
 4744.06279 2.2604620 0.0065927
 4748.79993 2.2638605 0.0068529
 4753.55132 2.2644732 0.0070276
 4758.30236 2.2738681 0.0068681
 4763.06798 2.2741208 0.0069622
 4767.83326 2.2857294 0.0070722
 4772.59889 2.2965598 0.0070556
 4777.36451 2.3085661 0.0070563
 4782.14403 2.3245702 0.0070579
 4786.92389 2.3433781 0.0070755
 4791.71765 2.3605268 0.0070827
 4796.51175 2.3722129 0.0070687
 4801.30551 2.3826449 0.0070448
 4806.11385 2.4010787 0.0069739
 4810.92185 2.4055228 0.0069942
 4815.73019 2.4168313 0.0069569
 4820.53819 2.4257522 0.0068831
 4825.36077 2.4296000 0.0068551
 4830.18300 2.4330087 0.0068360
 4835.01948 2.4357944 0.0068612
 4839.85630 2.4304414 0.0067929
 4844.69277 2.4234817 0.0067688
 4849.54383 2.4219463 0.0067529
 4854.38031 2.4136610 0.0067423
 4859.24526 2.4077945 0.0067291
 4864.09632 2.3971736 0.0067167
 4868.96127 2.3913863 0.0066871
 4873.84046 2.3831737 0.0066561
 4878.70576 2.3762417 0.0066316
 4883.58495 2.3672359 0.0065633
 4888.46415 2.3611860 0.0065883
 4893.35758 2.3527832 0.0065751
 4898.25135 2.3525226 0.0065652
 4903.15902 2.3491402 0.0065211
 4908.05246 2.3464825 0.0065196
 4912.96013 2.3508084 0.0065255
 4917.88204 2.3492362 0.0065768
 4922.79005 2.3445232 0.0065779
 4927.71196 2.3445132 0.0065230
 4932.64811 2.3378110 0.0064975
 4937.58426 2.3354299 0.0064718
 4942.52041 2.3373694 0.0064504
 4947.45656 2.3347862 0.0064372
 4952.40694 2.3377357 0.0064251
 4957.35733 2.3379810 0.0064125
 4962.32231 2.3423643 0.0063874
 4967.28693 2.3400104 0.0063683
 4972.25156 2.3378456 0.0063479
 4977.21619 2.3363476 0.0063188
 4982.19505 2.3328719 0.0062881
 4987.17392 2.3303757 0.0062166
 4992.16702 2.3262591 0.0061733
 4997.16013 2.3234196 0.0061467
 5002.15324 2.3181043 0.0061251
 5007.16023 2.3128905 0.0061444
 5012.16758 2.3045728 0.0061279
 5017.17492 2.2958572 0.0060720
 5022.19651 2.2860637 0.0060423
 5027.21809 2.2707984 0.0060171
 5032.25391 2.2601421 0.0059943
 5037.27550 2.2478664 0.0059751
 5042.31132 2.2346113 0.0059555
 5047.36103 2.2199302 0.0059332
 5052.41110 2.2057292 0.0059175
 5057.46116 2.1904912 0.0058664
 5062.51122 2.1711617 0.0058538
 5067.57552 2.1544149 0.0058405
 5072.63948 2.1380770 0.0058257
 5077.71802 2.1220922 0.0058008
 5082.79656 2.1029723 0.0057729
 5087.88899 2.0842605 0.0057431
 5092.96753 2.0663579 0.0057201
 5098.06031 2.0495667 0.0057070
 5103.16698 2.0337584 0.0057149
 5108.25976 2.0222204 0.0056376
 5113.36678 2.0141220 0.0055895
 5118.48769 2.0041535 0.0055513
 5123.60895 1.9957186 0.0055175
 5128.73021 1.9868031 0.0054911
 5133.86536 1.9783660 0.0054918
 5138.98662 1.9737866 0.0055046
 5144.13601 1.9659687 0.0055151
 5149.27151 1.9600340 0.0055435
 5154.42090 1.9526837 0.0055765
 5159.58487 1.9485888 0.0056008
 5164.73426 1.9455962 0.0056164
 5169.89824 1.9384795 0.0056293
 5175.07611 1.9324130 0.0055962
 5180.25432 1.9220661 0.0055876
 5185.43219 1.9140530 0.0055900
 5190.62464 1.9060121 0.0055993
 5195.80251 1.8958509 0.0055788
 5201.00886 1.8927798 0.0055880
 5206.20131 1.8943402 0.0055796
 5211.40766 1.8963382 0.0055764
 5216.62825 1.8973475 0.0055749
 5221.83494 1.9047304 0.0055626
 5227.06976 1.9096009 0.0055479
 5232.29035 1.9187433 0.0055504
 5237.52552 1.9312290 0.0055573
 5242.76035 1.9447023 0.0055677
 5248.00941 1.9569240 0.0055907
 5253.24424 1.9724357 0.0056175
 5258.50789 1.9936271 0.0056418
 5263.75695 2.0163598 0.0056590
 5269.03449 2.0445404 0.0056413
 5274.29780 2.0689795 0.0056559
 5279.57534 2.0858417 0.0056585
 5284.85323 2.0991676 0.0057012
 5290.13077 2.1113553 0.0056999
 5295.42255 2.1238022 0.0056891
 5300.72858 2.1360044 0.0056785
 5306.02036 2.1456437 0.0056678
 5311.32638 2.1513820 0.0056623
 5316.64664 2.1551263 0.0056224
 5321.95266 2.1585910 0.0056194
 5327.28716 2.1546633 0.0056177
 5332.60742 2.1546259 0.0056151
 5337.94192 2.1522088 0.0056148
 5343.27642 2.1457093 0.0056195
 5348.62516 2.1292467 0.0056256
 5353.97390 2.1214538 0.0056315
 5359.32263 2.1140611 0.0056049
 5364.68561 2.1061454 0.0056035
 5370.04859 2.0970869 0.0055987
 5375.42581 2.0835247 0.0056270
 5380.78879 2.0638256 0.0056207
 5386.18024 2.0465994 0.0056142
 5391.55746 2.0308440 0.0055813
 5396.94857 2.0134339 0.0055521
 5402.35426 1.9981047 0.0056941
 5407.75996 1.9866194 0.0055915
 5413.16566 1.9715445 0.0055312
 5418.57135 1.9592576 0.0055509
 5423.99094 1.9483079 0.0055881
 5429.42511 1.9413241 0.0056965
 5434.84505 1.9380093 0.0057802
 5440.27922 1.9309735 0.0058564
 5445.72729 1.9241580 0.0059251
 5451.17570 1.9172474 0.0061473
 5456.62411 1.9208180 0.0059443
 5462.07218 1.9148753 0.0058559
 5467.53483 1.9142021 0.0058523
 5473.01172 1.9103382 0.0057990
 5478.48827 1.9079055 0.0057791
 5483.96516 1.9049633 0.0057653
 5489.44171 1.9009298 0.0057639
 5494.93284 1.8944069 0.0057601
 5500.42362 1.8902966 0.0058323
 5505.92899 1.8890668 0.0059938
 5511.43401 1.8850616 0.0057488
 5516.95362 1.8827577 0.0056048
 5522.45865 1.8756388 0.0055290
 5527.99249 1.8750964 0.0054469
 5533.51176 1.8740314 0.0053967
 5539.04560 1.8771482 0.0053008
 5544.59334 1.8784351 0.0052709
 5550.14143 1.8797996 0.0052968
 5555.68917 1.8772480 0.0054289
 5561.23691 1.8720742 0.0052516
 5566.79924 1.8729445 0.0052485
 5572.37546 1.8778437 0.0052454
 5577.93744 1.8810143 0.0052118
 5583.52825 1.8898370 0.0052343
 5589.10446 1.8978573 0.0052253
 5594.69492 1.9036074 0.0051896
 5600.28573 1.9086396 0.0051864
 5605.89043 1.9113891 0.0051854
 5611.49512 1.9157721 0.0052148
 5617.11406 1.9149812 0.0051770
 5622.71910 1.9174447 0.0051714
 5628.35228 1.9161505 0.0051717
 5633.97122 1.9168549 0.0051707
 5639.60439 1.9123731 0.0051689
 5645.25181 1.9085351 0.0051364
 5650.89922 1.8997180 0.0051592
 5656.54664 1.8888608 0.0051508
 5662.20864 1.8759886 0.0051145
 5667.87029 1.8673072 0.0051097
 5673.53195 1.8657072 0.0051329
 5679.20784 1.8594913 0.0050998
 5684.88374 1.8566861 0.0050971
 5690.57387 1.8561666 0.0051217
 5696.26400 1.8480169 0.0050873
 5701.95413 1.8418076 0.0050851
 5707.65851 1.8340899 0.0050551
 5713.36288 1.8292086 0.0050845
 5719.08149 1.8259413 0.0050829
 5724.80010 1.8217925 0.0050517
 5730.53260 1.8234693 0.0050790
 5736.25122 1.8201149 0.0050460
 5741.99830 1.8177922 0.0050399
 5747.74539 1.8152887 0.0050713
 5753.49248 1.8150969 0.0050429
 5759.23957 1.8163027 0.0050349
 5765.00056 1.8165348 0.0050214
 5770.76188 1.8165630 0.0050037
 5776.53745 1.8237057 0.0049734
 5782.31302 1.8223727 0.0049483
 5788.08859 1.8209578 0.0048952
 5793.87805 1.8232321 0.0048945
 5799.68210 1.8238646 0.0048742
 5805.47190 1.8133557 0.0048341
 5811.28984 1.8115696 0.0048521
 5817.09389 1.8089288 0.0048280
 5822.91217 1.8094620 0.0048668
 5828.73046 1.8042845 0.0048510
 5834.56229 1.7995439 0.0048611
 5840.39482 1.7966683 0.0048705
 5846.24193 1.7881114 0.0048724
 5852.08834 1.7794467 0.0048685
 5857.93476 1.7670265 0.0048667
 5863.79576 1.7539496 0.0048417
 5869.65677 1.7426823 0.0048677
 5875.53166 1.7241464 0.0048412
 5881.40656 1.7062197 0.0048664
 5887.28145 1.6842864 0.0048339
 5893.17094 1.6623771 0.0048656
 5899.07431 1.6404849 0.0048422
 5904.96379 1.6196520 0.0048670
 5910.88175 1.5982201 0.0048316
 5916.78513 1.5715175 0.0047979
 5922.70309 1.5544559 0.0048135
 5928.62035 1.5386719 0.0047785
 5934.55220 1.5233154 0.0047995
 5940.48475 1.5051343 0.0047636
 5946.43050 1.4901586 0.0047785
 5952.37693 1.4750758 0.0047404
 5958.33727 1.4604216 0.0047288
 5964.28370 1.4475049 0.0047207
 5970.25793 1.4340984 0.0047082
 5976.21826 1.4222559 0.0047037
 5982.19317 1.4091469 0.0046949
 5988.18198 1.3936027 0.0046884
 5994.17079 1.3786447 0.0046814
 6000.15960 1.3658853 0.0046497
 6006.16300 1.3574371 0.0046755
 6012.16570 1.3514400 0.0046543
 6018.18299 1.3457493 0.0046560
 6024.20027 1.3448921 0.0046529
 6030.23215 1.3430898 0.0046533
 6036.26333 1.3483928 0.0046762
 6042.29520 1.3577683 0.0046503
 6048.34097 1.3673100 0.0046522
 6054.38673 1.3802470 0.0046490
 6060.44639 1.3947271 0.0046488
 6066.50675 1.4105839 0.0046232
 6072.56640 1.4312919 0.0046463
 6078.64065 1.4499347 0.0046258
 6084.71489 1.4660336 0.0046301
 6090.80372 1.4869608 0.0046608
 6096.89186 1.5059452 0.0046385
 6102.99458 1.5252777 0.0046368
 6109.09731 1.5469264 0.0046356
 6115.20003 1.5703954 0.0046415
 6121.31664 1.5904748 0.0046453
 6127.44785 1.6167003 0.0046228
 6133.56515 1.6376812 0.0046487
 6139.71025 1.6606103 0.0046250
 6145.84145 1.6853161 0.0046210
 6151.98654 1.7106148 0.0046332
 6158.14622 1.7362432 0.0046048
 6164.30590 1.7595738 0.0046103
 6170.46558 1.7794425 0.0046203
 6176.63915 1.7972857 0.0046298
 6182.81273 1.8119330 0.0046505
 6189.00088 1.8258854 0.0046731
 6195.18904 1.8366402 0.0046664
 6201.37720 1.8501813 0.0047093
 6207.57925 1.8586812 0.0047256
 6213.79589 1.8640883 0.0047074
 6219.99794 1.8659813 0.0047012
 6226.22847 1.8689733 0.0047186
 6232.44510 1.8656462 0.0046964
 6238.67563 1.8620759 0.0046935
 6244.92075 1.8628669 0.0046856
 6251.16586 1.8547947 0.0046638
 6257.42487 1.8482240 0.0046918
 6263.66999 1.8349905 0.0046911
 6269.94288 1.8176465 0.0047163
 6276.21648 1.8022188 0.0046659
 6282.49007 1.7852871 0.0046557
 6288.76297 1.7632143 0.0046650
 6295.06504 1.7437142 0.0047065
 6301.35253 1.7218010 0.0047121
 6307.65460 1.7035638 0.0047471
 6313.97057 1.6845466 0.0047792
 6320.27264 1.6632302 0.0048047
 6326.60249 1.6403848 0.0047969
 6332.91846 1.6161660 0.0048303
 6339.26290 1.5926319 0.0048204
 6345.59345 1.5732362 0.0048050
 6351.95248 1.5560037 0.0047627
 6358.29692 1.5408551 0.0047404
 6364.65526 1.5219181 0.0047153
 6371.02818 1.5040340 0.0046949
 6377.38721 1.4862815 0.0046805
 6383.77402 1.4631501 0.0046556
 6390.14694 1.4469395 0.0046793
 6396.54834 1.4322639 0.0046799
 6402.93585 1.4177508 0.0046686
 6409.33725 1.4034057 0.0046596
 6415.75254 1.3912667 0.0046266
 6422.16852 1.3774902 0.0046233
 6428.59840 1.3626838 0.0046190
 6435.01369 1.3475529 0.0046109
 6441.45816 1.3350346 0.0046053
 6447.90193 1.3244326 0.0046031
 6454.34639 1.3138703 0.0046029
 6460.80405 1.3088586 0.0045809
 6467.26241 1.3089664 0.0045854
 6473.73535 1.3116645 0.0045971
 6480.20760 1.3126940 0.0046138
 6486.68054 1.3207124 0.0046319
 6493.16668 1.3313600 0.0046512
 6499.66810 1.3426642 0.0046716
 6506.16883 1.3554357 0.0046874
 6512.67025 1.3783101 0.0047058
 6519.18487 1.3935027 0.0047037
 6525.70018 1.4114556 0.0047258
 6532.23008 1.4285713 0.0047394
 6538.75929 1.4477568 0.0047525
 6545.30308 1.4665784 0.0047687
 6551.84618 1.4854581 0.0047811
 6558.40456 1.5024993 0.0047875
 6564.96224 1.5191456 0.0047958
 6571.51992 1.5350831 0.0048069
 6578.09219 1.5524900 0.0048188
 6584.67836 1.5658331 0.0048568
 6591.26521 1.5789346 0.0049264
 6597.85137 1.5855260 0.0048935
 6604.45212 1.5897965 0.0049046
 6611.05218 1.5995283 0.0049636
 6617.66682 1.6052202 0.0050532
 6624.28215 1.6125182 0.0051581
 6630.91068 1.6237628 0.0052622
 6637.53991 1.6337373 0.0053684
 6644.18303 1.6371849 0.0054772
 6650.81226 1.6470859 0.0055702
 6657.46927 1.6578536 0.0056372
 6664.12697 1.6720192 0.0056760
 6670.79857 1.6825936 0.0056874
 6677.47017 1.6895537 0.0056670
 6684.14177 1.6915873 0.0056170
 6690.82795 1.6870281 0.0055560
 6697.51413 1.6827865 0.0054961
 6704.21421 1.6699983 0.0054544
 6710.91428 1.6515177 0.0054610
 6717.62825 1.6277440 0.0055000
 6724.35681 1.6062604 0.0054051
 6731.07147 1.5785171 0.0053623
 6737.80002 1.5538834 0.0053445
 6744.54316 1.5255736 0.0053319
 6751.28561 1.5009063 0.0053233
 6758.04264 1.4782006 0.0053150
 6764.79968 1.4555409 0.0053044
 6771.57129 1.4404188 0.0052921
 6778.32833 1.4254848 0.0053059
 6785.11384 1.4113303 0.0053774
 6791.89866 1.4017380 0.0052506
 6798.69875 1.3926153 0.0052107
 6805.49816 1.3812240 0.0052117
 6812.29825 1.3716313 0.0052304
 6819.11224 1.3618543 0.0052555
 6825.92623 1.3542452 0.0052784
 6832.75411 1.3448387 0.0052893
 6839.58200 1.3348461 0.0052837
 6846.42446 1.3266444 0.0052580
 6853.28152 1.3133810 0.0052056
 6860.13788 1.3006792 0.0051597
 6866.99424 1.2902001 0.0051687
 6873.85129 1.2788872 0.0049739
 6880.73613 1.2728231 0.0048741
 6887.60708 1.2656201 0.0048232
 6894.49192 1.2595097 0.0048036
 6901.39134 1.2567805 0.0048155
 6908.29077 1.2521363 0.0048495
 6915.20408 1.2509936 0.0049306
 6922.11740 1.2485030 0.0048304
 6929.04530 1.2466176 0.0048261
 6935.97321 1.2466527 0.0047949
 6942.90111 1.2533507 0.0047381
 6949.85680 1.2601292 0.0046722
 6956.79929 1.2616761 0.0046271
 6963.75497 1.2636250 0.0045824
 6970.72594 1.2634511 0.0045099
 6977.69622 1.2638268 0.0044369
 6984.66649 1.2641313 0.0044518
 6991.66524 1.2665709 0.0045321
 6998.65010 1.2703944 0.0046483
 7005.64886 1.2737786 0.0045825
 7012.66219 1.2751774 0.0046321
 7019.66095 1.2722639 0.0046607
 7026.68818 1.2724278 0.0046494
 7033.71541 1.2753506 0.0046452
 7040.74264 1.2754887 0.0046173
 7047.78446 1.2753967 0.0045724
 7054.84016 1.2767056 0.0045342
 7061.89587 1.2813233 0.0044765
 7068.95158 1.2846918 0.0043952
 7076.02188 1.2891842 0.0043412
 7083.10607 1.2940084 0.0043103
 7090.19025 1.2950706 0.0043206
 7097.27444 1.2971241 0.0043386
 7104.37252 1.2979993 0.0043055
 7111.47129 1.2975370 0.0042481
 7118.58396 1.2992727 0.0042556
 7125.71052 1.2989011 0.0042452
 7132.83777 1.3000900 0.0042272
 7139.96433 1.2960199 0.0041901
 7147.10547 1.2901618 0.0041769
 7154.24662 1.2864347 0.0041574
 7161.40165 1.2857099 0.0041443
 7168.57128 1.2827173 0.0041536
 7175.74090 1.2748480 0.0041207
 7182.92511 1.2704345 0.0041087
 7190.09473 1.2655926 0.0041008
 7197.29283 1.2605669 0.0040916
 7204.49024 1.2567991 0.0041487
 7211.68834 1.2526034 0.0040823
 7218.90103 1.2507032 0.0040578
 7226.12691 1.2502892 0.0040379
 7233.35349 1.2479839 0.0040584
 7240.58007 1.2457736 0.0040883
 7247.82055 1.2433813 0.0041224
 7255.07560 1.2434461 0.0041570
 7262.33066 1.2422261 0.0041797
 7269.58572 1.2443384 0.0041864
 7276.85467 1.2445928 0.0041545
 7284.13821 1.2444274 0.0041294
 7291.42174 1.2467641 0.0042027
 7298.71917 1.2471083 0.0041072
 7306.01660 1.2452791 0.0040012
 7313.31403 1.2387295 0.0039654
 7320.64063 1.2385037 0.0039652
 7327.95195 1.2341328 0.0039580
 7335.27855 1.2318398 0.0039883
 7342.61835 1.2315948 0.0040592
 7349.95885 1.2298863 0.0040315
 7357.31323 1.2290429 0.0040115
 7364.66762 1.2288818 0.0039982
 7372.03659 1.2252795 0.0039529
 7379.40487 1.2251060 0.0039298
 7386.78843 1.2266101 0.0038593
 7394.17129 1.2278737 0.0038238
 7401.56805 1.2265629 0.0038010
 7408.96550 1.2261420 0.0037464
 7416.37684 1.2226425 0.0037305
 7423.80277 1.2190561 0.0037376
 7431.21411 1.2158710 0.0038171
 7438.65393 1.2104203 0.0037648
 7446.09375 1.2068578 0.0037792
 7453.53357 1.2003980 0.0037511
 7460.98728 1.1987888 0.0037140
 7468.45558 1.1930255 0.0037143
 7475.92388 1.1901659 0.0037643
 7483.39218 1.1816311 0.0037910
 7490.87507 1.1725140 0.0038220
 7498.37185 1.1656343 0.0038542
 7505.86862 1.1560684 0.0038703
 7513.37929 1.1511090 0.0038781
 7520.89066 1.1467741 0.0038814
 7528.41522 1.1445953 0.0037868
 7535.94048 1.1369745 0.0036918
 7543.48032 1.1303724 0.0036466
 7551.01947 1.1280491 0.0035764
 7558.57320 1.1244290 0.0035429
 7566.12694 1.1210569 0.0034979
 7573.69456 1.1180414 0.0034852
 7581.27678 1.1159830 0.0034963
 7588.85899 1.1185595 0.0035332
 7596.44120 1.1157717 0.0034578
 7604.03731 1.1133536 0.0034084
 7611.64800 1.1095569 0.0033508
 7619.25869 1.1026937 0.0033252
 7626.88327 1.0961114 0.0032641
 7634.49396 1.0916758 0.0032316
 7642.13313 1.0900840 0.0031860
 7649.78620 1.0842685 0.0032628
 7657.42537 1.0851232 0.0031596
 7665.09232 1.0822558 0.0031561
 7672.74608 1.0778221 0.0031453
 7680.42762 1.0727446 0.0031968
 7688.10916 1.0695887 0.0032176
 7695.79070 1.0674644 0.0032334
 7703.48683 1.0617621 0.0032687
 7711.19684 1.0570549 0.0032992
 7718.90686 1.0542120 0.0033557
 7726.63147 1.0491672 0.0033688
 7734.35538 1.0423111 0.0033907
 7742.09457 1.0332330 0.0033603
 7749.83307 1.0273290 0.0033456
 7757.58546 1.0201749 0.0032842
 7765.33854 1.0146199 0.0032360
 7773.10552 1.0111324 0.0031980
 7780.87249 1.0098131 0.0031617
 7788.65405 1.0090398 0.0031514
 7796.44951 1.0073802 0.0032534
 7804.24496 1.0042779 0.0030935
 7812.05431 0.9994047 0.0030699
 7819.86435 0.9954673 0.0030574
 7827.68828 0.9927596 0.0031004
 7835.51221 0.9889242 0.0031047
 7843.35004 0.9857306 0.0031015
 7851.18856 0.9845157 0.0031086
 7859.04097 0.9805558 0.0031104
 7866.89338 0.9757699 0.0030896
 7874.75968 0.9706604 0.0030800
 7882.64057 0.9641003 0.0030476
 7890.52146 0.9606241 0.0029936
 7898.41624 0.9577250 0.0029658
 7906.31172 0.9534469 0.0029065
 7914.22109 0.9520509 0.0028676
 7922.14435 0.9487710 0.0028419
 7930.05372 0.9470916 0.0028111
 7937.99156 0.9452822 0.0028123
 7945.92871 0.9421970 0.0028427
 7953.88115 0.9401910 0.0027978
 7961.83289 0.9363781 0.0027938
 7969.78462 0.9360516 0.0027840
 7977.76553 0.9360458 0.0027993
 7985.74575 0.9335079 0.0028106
 7993.72597 0.9340168 0.0028228
 8001.72077 0.9344605 0.0027963
 8009.71557 0.9307937 0.0027824
 8017.72427 0.9281691 0.0027874
 8025.74755 0.9276761 0.0028009
 8033.77014 0.9254344 0.0028024
 8041.80801 0.9253961 0.0028249
 8049.85907 0.9219622 0.0028309
 8057.89694 0.9209177 0.0028435
 8065.96259 0.9184643 0.0028523
 8074.02825 0.9160647 0.0028249
 8082.09390 0.9141891 0.0027801
 8090.18803 0.9106597 0.0027532
 8098.26827 0.9073125 0.0027474
 8106.37629 0.9060646 0.0027511
 8114.48501 0.9029442 0.0027548
 8122.59372 0.9026867 0.0027675
 8130.71633 0.9013645 0.0027749
 8138.85283 0.8982818 0.0028055
 8146.99003 0.8993657 0.0028383
 8155.14112 0.8963608 0.0028341
 8163.29220 0.8976604 0.0028306
 8171.45718 0.8966594 0.0028179
 8179.62286 0.8972099 0.0028124
 8187.80242 0.8973874 0.0027897
 8195.99588 0.8980635 0.0027724
 8204.19003 0.8974595 0.0027566
 8212.39808 0.8974964 0.0027844
 8220.60612 0.8971357 0.0027839
 8228.82806 0.8954760 0.0027450
 8237.05069 0.8890143 0.0027057
 8245.30110 0.8857062 0.0026754
 8253.53763 0.8811345 0.0026384
 8261.80263 0.8760340 0.0026134
 8270.05304 0.8689042 0.0026029
 8278.33263 0.8624242 0.0025647
 8286.61152 0.8563471 0.0025337
 8294.89042 0.8501301 0.0025045
 8303.18390 0.8449675 0.0024794
 8311.49196 0.8386462 0.0024686
 8319.79933 0.8328931 0.0024443
 8328.12129 0.8251571 0.0024203
 8336.45714 0.8196932 0.0023956
 8344.79299 0.8149756 0.0023685
 8353.12884 0.8116354 0.0023461
 8361.49387 0.8059778 0.0023347
 8369.84361 0.8004310 0.0023249
 8378.22252 0.7942392 0.0023052
 8386.60144 0.7892683 0.0022855
 8394.98035 0.7852294 0.0022812
 8403.38705 0.7839046 0.0022773
 8411.78055 0.7806676 0.0022690
 8420.20184 0.7773771 0.0022619
 8428.62312 0.7740886 0.0022574
 8437.04441 0.7714667 0.0022525
 8445.48028 0.7687824 0.0022445
 8453.93004 0.7673469 0.0022285
 8462.37981 0.7661405 0.0022176
 8470.84346 0.7639695 0.0022004
 8479.32240 0.7604589 0.0021953
 8487.80064 0.7592096 0.0021918
 8496.27889 0.7574162 0.0021931
 8504.78561 0.7555096 0.0021960
 8513.29233 0.7541929 0.0021800
 8521.79905 0.7507083 0.0021770
 8530.31966 0.7476724 0.0021825
 8538.85486 0.7469721 0.0021834
 8547.39006 0.7468206 0.0021940
 8555.93985 0.7461996 0.0022216
 8564.50352 0.7452974 0.0022234
 8573.06720 0.7449590 0.0022094
 8581.64477 0.7425523 0.0022068
 8590.22303 0.7410464 0.0022230
 8598.81519 0.7402043 0.0022603
 8607.40665 0.7380632 0.0022784
 8616.01339 0.7376907 0.0023257
 8624.63403 0.7371398 0.0023031
 8633.25466 0.7357706 0.0023233
 8641.88919 0.7353527 0.0023696
 8650.53830 0.7357329 0.0024149
 8659.18742 0.7345967 0.0024851
 8667.85042 0.7340304 0.0025465
 8676.51343 0.7346620 0.0025649
 8685.19102 0.7357060 0.0025478
 8693.86861 0.7344331 0.0025735
 8702.57468 0.7360984 0.0025910
 8711.28005 0.7356166 0.0026157
 8719.98612 0.7381030 0.0026501
 8728.70609 0.7387441 0.0026198
 8737.44063 0.7375705 0.0025688
 8746.17518 0.7352530 0.0025380
 8754.92362 0.7329171 0.0024935
 8763.67206 0.7280616 0.0024807
 8772.43509 0.7224200 0.0024274
 8781.21201 0.7185833 0.0024056
 8789.98893 0.7116719 0.0023564
 8798.78043 0.7049604 0.0022976
 8807.58583 0.7006574 0.0022613
 8816.39123 0.6929538 0.0022247
 8825.21121 0.6847182 0.0022071
 8834.03050 0.6771616 0.0021981
 8842.86437 0.6701319 0.0021723
 8851.71284 0.6618309 0.0021153
 8860.56130 0.6538593 0.0021119
 8869.42365 0.6493628 0.0021085
 8878.29990 0.6437751 0.0021053
 8887.16225 0.6401547 0.0021038
 8896.05309 0.6353337 0.0021134
 8904.95850 0.6303737 0.0021036
 8913.86323 0.6286634 0.0021109
 8922.78254 0.6280280 0.0021012
 8931.70185 0.6266953 0.0021052
 8940.63505 0.6268376 0.0021014
 8949.56895 0.6268386 0.0021167
 8958.51674 0.6276789 0.0021127
 8967.47842 0.6301746 0.0020919
 8976.45469 0.6330881 0.0021031
 8985.43096 0.6341529 0.0021609
 8994.40723 0.6372184 0.0021655
 9003.41197 0.6392892 0.0021333
 9012.41672 0.6400651 0.0021452
 9021.42077 0.6422542 0.0021671
 9030.44010 0.6456268 0.0022184
 9039.47333 0.6477223 0.0022819
 9048.52044 0.6484154 0.0023693
 9057.56756 0.6522497 0.0024988
 9066.61468 0.6541508 0.0025888
 9075.69097 0.6569819 0.0026544
 9084.76656 0.6613597 0.0026632
 9093.85674 0.6667910 0.0026588
 9102.94623 0.6686604 0.0025966
 9112.05030 0.6705288 0.0025457
 9121.16896 0.6715994 0.0024659
 9130.27304 0.6726766 0.0023430
 9139.40628 0.6735745 0.0022631
 9148.55273 0.6750895 0.0022466
 9157.69987 0.6766601 0.0023135
 9166.86090 0.6778785 0.0022498
 9176.02193 0.6786508 0.0022208
 9185.21144 0.6797506 0.0022413
 9194.38705 0.6828325 0.0022935
 9203.57656 0.6841654 0.0023333
 9212.79455 0.6849695 0.0024179
 9221.99795 0.6883414 0.0023709
 9231.21594 0.6923068 0.0023769
 9240.44851 0.6941311 0.0024147
 9249.69498 0.6975862 0.0024616
 9258.94144 0.7004064 0.0025139
 9268.20180 0.7024751 0.0026300
 9277.47675 0.7041129 0.0027532
 9286.75169 0.7058128 0.0029566
 9296.04122 0.7057278 0.0030716
 9305.33006 0.7037250 0.0030312
 9314.63348 0.7049990 0.0030305
 9323.95149 0.7056358 0.0030046
 9333.28270 0.7046227 0.0029869
 9342.61460 0.7040288 0.0028923
 9351.96108 0.7039990 0.0028262
 9361.30688 0.7058640 0.0027363
 9370.66726 0.7096553 0.0026915
 9380.04153 0.7080124 0.0026463
 9389.43039 0.7092621 0.0026215
 9398.81924 0.7088851 0.0025170
 9408.20810 0.7082962 0.0025106
 9417.62474 0.7067145 0.0024587
 9427.04208 0.7066517 0.0024021
 9436.47331 0.7052127 0.0023273
 9445.90523 0.7016367 0.0023133
 9455.35035 0.6978989 0.0022583
 9464.81075 0.6937486 0.0022766
 9474.27046 0.6881602 0.0022600
 9483.74406 0.6835617 0.0022506
 9493.23294 0.6809798 0.0022248
 9502.72113 0.6767166 0.0021937
 9512.22320 0.6730142 0.0021796
 9521.73987 0.6698942 0.0021831
 9531.25722 0.6677223 0.0022168
 9540.78778 0.6662057 0.0021764
 9550.33292 0.6642692 0.0021379
 9559.87806 0.6626233 0.0021201
 9569.45169 0.6621106 0.0020914
 9579.01141 0.6625164 0.0020670
 9588.59893 0.6620652 0.0020378
 9598.18713 0.6607086 0.0020205
 9607.78923 0.6597520 0.0019913
 9617.39133 0.6585680 0.0019728
 9627.00732 0.6553280 0.0019572
 9636.63790 0.6527385 0.0019233
 9646.26848 0.6496021 0.0019047
 9655.92753 0.6460495 0.0018933
 9665.57270 0.6426656 0.0018843
 9675.24565 0.6395108 0.0018582
 9684.91929 0.6343971 0.0018448
 9694.60613 0.6304402 0.0018359
 9704.30825 0.6257145 0.0018297
 9714.00968 0.6210470 0.0018151
 9723.72569 0.6168980 0.0017963
 9733.44170 0.6129939 0.0017879
 9743.17161 0.6083188 0.0017886
 9752.91610 0.6037322 0.0017774
 9762.67448 0.5985784 0.0017674
 9772.43356 0.5932862 0.0017521
 9782.20583 0.5897939 0.0017540
 9791.99339 0.5860742 0.0017657
 9801.78025 0.5809513 0.0017597
 9811.59559 0.5768129 0.0017385
 9821.39704 0.5734402 0.0017370
 9831.22627 0.5693276 0.0017455
 9841.05620 0.5664614 0.0017851
 9850.88613 0.5640986 0.0018346
 9860.74384 0.5625799 0.0019080
 9870.60224 0.5608343 0.0019618
 9880.47454 0.5610221 0.0019680
 9890.36142 0.5597096 0.0019885
 9900.24761 0.5577946 0.0020173
 9910.14839 0.5574349 0.0020350
 9920.06375 0.5563821 0.0020458
 9929.97911 0.5539402 0.0020392
 9939.90836 0.5542903 0.0020128
 9949.85151 0.5537061 0.0019908
 9959.80924 0.5542343 0.0020015
 9969.76698 0.5537789 0.0020090
 9979.72471 0.5522643 0.0020361
 9989.71092 0.5503709 0.0020484
 9999.71102 0.5505630 0.0020541
 10009.69723 0.5492518 0.0020287
 10019.71192 0.5468410 0.0019931
 10029.74120 0.5469733 0.0019763
 10039.75589 0.5464908 0.0019864
 10049.79905 0.5457292 0.0020438
 10059.85611 0.5455686 0.0019822
 10069.91317 0.5428123 0.0019297
 10079.98482 0.5416862 0.0019048
 10090.07036 0.5406818 0.0018893
 10100.15659 0.5399089 0.0018802
 10110.25672 0.5384808 0.0018365
 10120.37073 0.5365551 0.0018103
 10130.48475 0.5365160 0.0017736
 10140.61335 0.5354713 0.0017558
 10150.75585 0.5338494 0.0017404
 10160.91293 0.5319198 0.0017021
 10171.07001 0.5313014 0.0016869
 10181.24098 0.5287548 0.0017016
 10191.42585 0.5277208 0.0016775
 10201.61141 0.5259719 0.0016623
 10211.82545 0.5244691 0.0016371
 10222.03879 0.5233480 0.0016574
 10232.25283 0.5223173 0.0017117
 10242.48076 0.5209342 0.0017556
 10252.73717 0.5196130 0.0017876
 10262.97969 0.5175741 0.0018422
 10273.24999 0.5184057 0.0019200
 10283.52098 0.5178525 0.0020028
 10293.80587 0.5143918 0.0020547
 10304.10534 0.5131916 0.0020680
 10314.40412 0.5111453 0.0020495
 10324.71749 0.5100795 0.0020189
 10335.04544 0.5078379 0.0019638
 10345.38659 0.5048800 0.0019095
 10355.72843 0.5024169 0.0018753
 10366.08486 0.5011659 0.0018152
 10376.45519 0.4992230 0.0017431
 10386.82551 0.4971986 0.0016735
 10397.20972 0.4954332 0.0016388
 10407.60852 0.4928363 0.0016422
 10418.02122 0.4903525 0.0016743
 10428.43461 0.4876702 0.0017525
 10438.86188 0.4842912 0.0018048
 10449.30306 0.4829143 0.0017949
 10459.75881 0.4797103 0.0018094
 10470.21388 0.4766949 0.0018196
 10480.68422 0.4730494 0.0018520
 10491.16846 0.4692909 0.0018434
 10501.66659 0.4672603 0.0018556
 10512.16471 0.4653715 0.0018259
 10522.67743 0.4626125 0.0018289
 10533.18945 0.4606234 0.0018046
 10543.73064 0.4573826 0.0018243
 10554.27184 0.4568105 0.0018502
 10564.82692 0.4570057 0.0018703
 10575.39659 0.4555641 0.0018605
 10585.96557 0.4548593 0.0018684
 10596.54913 0.4553789 0.0018163
 10607.14728 0.4542579 0.0017968
 10617.75933 0.4538260 0.0018139
 10628.38595 0.4539141 0.0018589
 10639.01189 0.4537583 0.0018803
 10649.65241 0.4538865 0.0018131
 10660.29293 0.4521157 0.0018064
 10670.96193 0.4517878 0.0017815
 10681.63093 0.4500996 0.0017894
 10692.31451 0.4485148 0.0017537
 10703.01199 0.4471837 0.0017325
 10713.70947 0.4453534 0.0016673
 10724.42084 0.4430369 0.0016545
 10735.14679 0.4419463 0.0016095
 10745.88664 0.4386990 0.0016004
 10756.62718 0.4384295 0.0015641
 10767.38162 0.4370838 0.0015403
 10778.14994 0.4352884 0.0015286
 10788.93286 0.4341823 0.0015217
 10799.71577 0.4325575 0.0014798
 10810.52716 0.4303893 0.0014726
 10821.33786 0.4279689 0.0014753
 10832.16384 0.4252747 0.0014601
 10842.98912 0.4227946 0.0014413
 10853.82899 0.4193886 0.0014060
 10864.68275 0.4152651 0.0014001
 10875.55110 0.4111569 0.0013893
 10886.43334 0.4072317 0.0013941
 10897.31558 0.4024424 0.0013888
 10908.21241 0.3986511 0.0013673
 10919.12312 0.3950059 0.0013494
 10930.03384 0.3894330 0.0013486
 10940.97304 0.3854494 0.0013384
 10951.91224 0.3802223 0.0013391
 10962.86602 0.3769159 0.0013329
 10973.83370 0.3725654 0.0013253
 10984.80137 0.3689615 0.0013192
 10995.79752 0.3652609 0.0013278
 11006.77979 0.3617662 0.0013417
 11017.78983 0.3576405 0.0013508
 11028.81446 0.3527440 0.0013371
 11039.83910 0.3492236 0.0013385
 11050.87832 0.3460100 0.0013576
 11061.93143 0.3424204 0.0014054
 11072.99843 0.3393716 0.0014689
 11084.06543 0.3370792 0.0015364
 11095.14702 0.3360392 0.0016148
 11106.24320 0.3335578 0.0017084
 11117.35326 0.3321701 0.0017642
 11128.46333 0.3305389 0.0018503
 11139.60118 0.3271346 0.0019145
 11150.73973 0.3269139 0.0019525
 11161.89286 0.3251577 0.0019583
 11173.05919 0.3255263 0.0019467
 11184.22622 0.3250180 0.0018881
 11195.40713 0.3238583 0.0018843
 11206.61722 0.3232681 0.0018937
 11217.81203 0.3228425 0.0019280
 11229.03601 0.3216014 0.0019418
 11240.25999 0.3211717 0.0018966
 11251.51245 0.3201719 0.0019092
 11262.76422 0.3185537 0.0018774
 11274.01668 0.3177962 0.0018906
 11285.29762 0.3171772 0.0019309
 11296.57786 0.3175892 0.0019427
 11307.87269 0.3178386 0.0019319
 11319.18211 0.3189932 0.0018886
 11330.50542 0.3192535 0.0018948
 11341.82873 0.3200628 0.0019106
 11353.18051 0.3220972 0.0019297
 11364.53230 0.3240949 0.0019367
 11375.89867 0.3274346 0.0019206
 11387.27894 0.3281554 0.0018647
 11398.65920 0.3303223 0.0018313
 11410.06795 0.3327639 0.0018103
 11421.47669 0.3350621 0.0017860
 11432.88544 0.3360554 0.0017313
 11444.32196 0.3384811 0.0016945
 11455.77377 0.3399137 0.0016721
 11467.22489 0.3405422 0.0016404
 11478.70518 0.3405249 0.0016508
 11490.17018 0.3409715 0.0016340
 11501.66436 0.3413647 0.0016956
 11513.17313 0.3425139 0.0017249
 11524.68120 0.3443936 0.0017529
 11536.20386 0.3442379 0.0017863
 11547.74041 0.3450749 0.0018224
 11559.29154 0.3459149 0.0018488
 11570.85657 0.3463000 0.0018657
 11582.42160 0.3473066 0.0018617
 11594.00121 0.3510763 0.0018777
 11605.60931 0.3504356 0.0018784
 11617.20281 0.3518224 0.0018746
 11628.82480 0.3521607 0.0018399
 11640.46137 0.3524202 0.0018361
 11652.09725 0.3536600 0.0018008
 11663.74841 0.3543199 0.0017905
 11675.41346 0.3556693 0.0017775
 11687.09240 0.3565077 0.0017682
 11698.78523 0.3568341 0.0017539
 11710.47807 0.3575585 0.0017671
 11722.18618 0.3573859 0.0017897
 11733.90680 0.3580459 0.0017860
 11745.64270 0.3571225 0.0017962
 11757.39388 0.3574434 0.0017942
 11769.14367 0.3567416 0.0018125
 11780.92263 0.3565265 0.0018742
 11792.70021 0.3564050 0.0018933
 11804.49306 0.3568251 0.0018942
 11816.29981 0.3563150 0.0019125
 11828.12184 0.3548204 0.0019604
 11839.94248 0.3526214 0.0020384
 11851.77840 0.3537575 0.0021592
 11863.64210 0.3534701 0.0021427
 11875.49192 0.3520533 0.0021473
 11887.37090 0.3509364 0.0021572
 11899.26239 0.3498684 0.0021759
 11911.16916 0.3472355 0.0021902
 11923.07593 0.3441717 0.0022202
 11934.99659 0.3430266 0.0022700
 11946.93114 0.3413292 0.0022727
 11958.88098 0.3383312 0.0023048
 11970.84471 0.3368240 0.0023451
 11982.80843 0.3346910 0.0023383
 11994.79994 0.3349268 0.0023753
 12006.79145 0.3327211 0.0024005
 12018.79824 0.3316704 0.0024319
 12030.81893 0.3285871 0.0024956
 12042.85350 0.3262915 0.0025248
 12054.90197 0.3225323 0.0026460
 12066.95044 0.3219311 0.0028260
 12079.01419 0.3189561 0.0028786
 12091.09183 0.3174293 0.0029315
 12103.18336 0.3160070 0.0029708
 12115.28878 0.3138413 0.0030522
 12127.40810 0.3125156 0.0031599
 12139.54270 0.3115980 0.0033449
 12151.67729 0.3106852 0.0036295
 12163.82578 0.3099504 0.0039217
 12175.98816 0.3091338 0.0041623
 12188.16444 0.3093808 0.0044641
 12200.35599 0.3090790 0.0048356
 12212.56144 0.3082939 0.0054885
 12224.76688 0.3085566 0.0060718
 12237.00011 0.3093697 0.0073575
 12249.23473 0.3098408 0.0086466
 12261.48185 0.3073044 0.0103690
 12273.74426 0.3051867 0.0122861
