# SOURCE  = 'Quimby et al. 2018' /                                                
# OBJECT  = 'PTF09cnd'           /                                                
# Z       =             0.258500 / wavelengths in OBSERVER FRAME                 
# NORM    =          1.83979E-16 / fluxes divided by norm                         
# CLIPPED =                    1 / galaxy emission lines removed                  
# SMOOTHED=                    1 / spectrum has been smoothed                     
# COLUMN01= 'Wavelength (Angstrom)' /                                             
# COLUMN02= 'Flux Density (erg/s/cm2/A)' /                                        
# COLUMN03= 'Flux Density Uncertainty (erg/s/cm2/A)' /                            
# END                                                                             
# 
# 
# 
# 
# 
# 
# 
# 
# 
# 
# Converted to Observer Frame using z=0.258
 4006.91886 4.7619996 0.0193321
 4010.92438 4.7620788 0.0188497
 4014.94575 4.7685370 0.0183895
 4018.95128 4.7730021 0.0179633
 4022.97265 4.7871895 0.0175394
 4026.99402 4.7531810 0.0171437
 4031.01501 4.7303505 0.0168021
 4035.05223 4.7176237 0.0164561
 4039.08945 4.7072792 0.0161165
 4043.12667 4.7054100 0.0156627
 4047.17973 4.7213531 0.0153223
 4051.21657 4.7136207 0.0150091
 4055.26963 4.7160034 0.0147355
 4059.32270 4.7336922 0.0144483
 4063.39161 4.7331495 0.0142030
 4067.44429 4.7404308 0.0139412
 4071.51321 4.7399244 0.0136909
 4075.58212 4.7252336 0.0133729
 4079.66688 4.7127090 0.0131373
 4083.75126 4.6884775 0.0128983
 4087.82017 4.6404023 0.0126829
 4091.92078 4.5820427 0.0124476
 4096.00516 4.5094409 0.0122234
 4100.10577 4.4454122 0.0120272
 4104.20638 4.3657665 0.0117179
 4108.30660 4.2968049 0.0115295
 4112.42305 4.2267733 0.0113158
 4116.52328 4.1469593 0.0111073
 4120.63973 4.0645256 0.0109215
 4124.77204 3.9855454 0.0107226
 4128.88811 3.9067655 0.0105325
 4133.02041 3.8382535 0.0102887
 4137.15233 3.7749374 0.0101147
 4141.30048 3.7148907 0.0099718
 4145.43240 3.6503408 0.0098124
 4149.58055 3.5926127 0.0096564
 4153.72831 3.5316169 0.0095262
 4157.87646 3.4749527 0.0093071
 4162.04008 3.4235086 0.0091850
 4166.20407 3.3983283 0.0090346
 4170.36769 3.3661275 0.0088915
 4174.54753 3.3470130 0.0087702
 4178.71114 3.3146305 0.0088340
 4182.89099 3.2803285 0.0089402
 4187.07045 3.2610049 0.0090718
 4191.26614 3.2286613 0.0083863
 4195.46145 3.1893387 0.0080958
 4199.65676 3.1484778 0.0079529
 4203.85245 3.0969512 0.0078350
 4208.06360 3.0556107 0.0078129
 4212.25930 3.0137067 0.0078270
 4216.47045 2.9693720 0.0078408
 4220.69745 2.9248986 0.0078840
 4224.90899 2.8837547 0.0078493
 4229.13600 2.8532224 0.0078585
 4233.36300 2.8211169 0.0078915
 4237.60623 2.7951362 0.0078752
 4241.83323 2.7819676 0.0078599
 4246.07608 2.7863379 0.0077045
 4250.33478 2.8091700 0.0076103
 4254.57802 2.8343353 0.0074596
 4258.83671 2.8728957 0.0073163
 4263.09541 2.9085743 0.0071521
 4267.35410 2.9578431 0.0069490
 4271.62904 3.0146463 0.0068034
 4275.90358 3.0769725 0.0066590
 4280.17812 3.1374030 0.0065563
 4284.45267 3.1999004 0.0064476
 4288.74306 3.2737794 0.0064458
 4293.01799 3.3521600 0.0064248
 4297.32423 3.4363472 0.0064386
 4301.61462 3.5147679 0.0065792
 4305.92086 3.5824547 0.0064121
 4310.22710 3.6500714 0.0063284
 4314.53333 3.7194471 0.0062858
 4318.85542 3.7821538 0.0063126
 4323.16166 3.8508549 0.0063401
 4327.48374 3.9177508 0.0063637
 4331.82168 3.9815817 0.0064104
 4336.14415 4.0331330 0.0064252
 4340.48208 4.0831008 0.0064680
 4344.82002 4.1332974 0.0064153
 4349.17380 4.1839294 0.0064322
 4353.52758 4.2371044 0.0063928
 4357.88136 4.2798800 0.0063805
 4362.23514 4.3198900 0.0062639
 4366.58892 4.3620286 0.0062092
 4370.95855 4.3932681 0.0061228
 4375.32818 4.4117513 0.0060579
 4379.71327 4.4282141 0.0059250
 4384.08289 4.4471316 0.0058548
 4388.46837 4.4529552 0.0057745
 4392.86969 4.4448819 0.0056926
 4397.25517 4.4257760 0.0056399
 4401.65649 4.4007316 0.0056552
 4406.05781 4.3706684 0.0056722
 4410.45914 4.3507895 0.0054884
 4414.87631 4.3186979 0.0054280
 4419.29309 4.2919216 0.0053722
 4423.71026 4.2632446 0.0053416
 4428.12743 4.2326870 0.0052696
 4432.56045 4.2016315 0.0052675
 4436.99347 4.1750288 0.0052480
 4441.42648 4.1531110 0.0052337
 4445.87496 4.1322451 0.0052290
 4450.32383 4.1097531 0.0052595
 4454.77269 4.0948391 0.0052986
 4459.22156 4.0820165 0.0052713
 4463.68588 4.0772085 0.0053076
 4468.15060 4.0573697 0.0053086
 4472.61531 4.0497789 0.0052936
 4477.07964 4.0397730 0.0052706
 4481.56020 4.0327096 0.0052751
 4486.04076 4.0280790 0.0052388
 4490.53678 4.0242872 0.0052066
 4495.01734 4.0239825 0.0052113
 4499.51374 4.0124240 0.0051876
 4504.02561 4.0000057 0.0051594
 4508.52202 3.9858644 0.0051681
 4513.03427 3.9692104 0.0051490
 4517.54614 3.9543140 0.0051203
 4522.05840 3.9334095 0.0051008
 4526.58611 3.9097223 0.0051074
 4531.11421 3.8913853 0.0050745
 4535.64232 3.8680453 0.0050484
 4540.18588 3.8478110 0.0050495
 4544.71398 3.8331797 0.0050165
 4549.25754 3.8155468 0.0049924
 4553.81734 3.8009174 0.0049940
 4558.36090 3.7777271 0.0049387
 4562.92070 3.7563188 0.0049434
 4567.49596 3.7317538 0.0049549
 4572.05575 3.7118900 0.0049057
 4576.63101 3.6987166 0.0049153
 4581.20627 3.6889050 0.0049254
 4585.78191 3.6775978 0.0048725
 4590.37302 3.6692245 0.0048816
 4594.96451 3.6656978 0.0048910
 4599.55562 3.6629672 0.0048349
 4604.16257 3.6571200 0.0048414
 4608.76991 3.6537578 0.0047822
 4613.37686 3.6470823 0.0047843
 4617.98381 3.6411290 0.0047868
 4622.60700 3.6314149 0.0047277
 4627.22980 3.6158533 0.0047300
 4631.85260 3.6011353 0.0047297
 4636.49163 3.5793254 0.0046676
 4641.13028 3.5585015 0.0046694
 4645.76893 3.5342245 0.0046671
 4650.40796 3.5033810 0.0046259
 4655.06246 3.4675610 0.0045922
 4659.71695 3.4346035 0.0045463
 4664.37144 3.3986385 0.0045369
 4669.04179 3.3725126 0.0045022
 4673.71252 3.3479762 0.0044639
 4678.38286 3.3198912 0.0044675
 4683.06905 3.3011732 0.0044139
 4687.73939 3.2926066 0.0044244
 4692.42558 3.2880080 0.0044377
 4697.12800 3.2880337 0.0044202
 4701.83004 3.2918320 0.0044034
 4706.53208 3.3008585 0.0043757
 4711.23411 3.3075750 0.0043531
 4715.95200 3.3231809 0.0043202
 4720.65403 3.3336046 0.0042607
 4725.38776 3.3443651 0.0042632
 4730.10565 3.3522756 0.0042095
 4734.83938 3.3474796 0.0042217
 4739.57311 3.3436406 0.0041760
 4744.30684 3.3348796 0.0041591
 4749.05642 3.3326292 0.0041728
 4753.80600 3.3231511 0.0041272
 4758.55558 3.3107285 0.0041370
 4763.32101 3.3091326 0.0040871
 4768.08643 3.3012788 0.0040676
 4772.85186 3.2977901 0.0040515
 4777.61729 3.2954938 0.0040298
 4782.39856 3.2866285 0.0040120
 4787.17983 3.2792628 0.0039988
 4791.97695 3.2742448 0.0039848
 4796.75823 3.2762713 0.0039724
 4801.55535 3.2793849 0.0039574
 4806.36832 3.2776327 0.0039177
 4811.16505 3.2818432 0.0039312
 4815.97802 3.2825677 0.0039179
 4820.79099 3.2882750 0.0038750
 4825.61981 3.2843485 0.0038892
 4830.44862 3.2907071 0.0038504
 4835.27705 3.2978010 0.0038339
 4840.10587 3.3110778 0.0038468
 4844.95053 3.3228953 0.0038065
 4849.79519 3.3323092 0.0037918
 4854.63986 3.3520989 0.0037784
 4859.49998 3.3676729 0.0037622
 4864.36049 3.3871641 0.0037475
 4869.22100 3.3890791 0.0037368
 4874.09697 3.3896127 0.0037204
 4878.97333 3.3893735 0.0037057
 4883.84969 3.3888328 0.0036946
 4888.72566 3.3829441 0.0036814
 4893.61787 3.3742537 0.0036456
 4898.51007 3.3630528 0.0037455
 4903.41774 3.3582680 0.0037001
 4908.30995 3.3371372 0.0036151
 4913.21800 3.3220189 0.0036679
 4918.14151 3.3010180 0.0038124
 4923.06541 3.2825387 0.0036835
 4927.97308 3.2664447 0.0037035
 4932.91283 3.2549860 0.0037868
 4937.83634 3.2400737 0.0038365
 4942.77609 3.2298248 0.0039012
 4947.71545 3.2172840 0.0039792
 4952.67104 3.1892879 0.0040091
 4957.62625 3.1587801 0.0039747
 4962.58185 3.1253972 0.0038442
 4967.53706 3.0975318 0.0037350
 4972.50850 3.0628850 0.0036133
 4977.47956 3.0295439 0.0034987
 4982.46685 3.0003424 0.0033849
 4987.43790 2.9681261 0.0033504
 4992.42480 2.9305148 0.0034095
 4997.42794 2.9022057 0.0032685
 5002.41484 2.8735559 0.0032130
 5007.41798 2.8511312 0.0032806
 5012.43658 2.8353355 0.0032992
 5017.43933 2.8236058 0.0032056
 5022.45832 2.8219182 0.0032079
 5027.49276 2.8227715 0.0032324
 5032.51136 2.8285668 0.0032113
 5037.54580 2.8296642 0.0032093
 5042.58064 2.8234279 0.0032072
 5047.63093 2.8225505 0.0032053
 5052.68122 2.8202510 0.0031999
 5057.73152 2.8269610 0.0031910
 5062.78219 2.8278482 0.0031821
 5067.84834 2.8258045 0.0031529
 5072.91448 2.8251717 0.0031644
 5077.99646 2.8206248 0.0031542
 5083.06260 2.8112879 0.0031468
 5088.14498 2.8029213 0.0031200
 5093.24281 2.7945814 0.0031358
 5098.32480 2.7859273 0.0031280
 5103.43848 2.7794120 0.0030993
 5108.53632 2.7716362 0.0030891
 5113.65000 2.7622068 0.0030780
 5118.76368 2.7595079 0.0030674
 5123.87737 2.7555985 0.0030788
 5129.00690 2.7526836 0.0030493
 5134.13642 2.7457385 0.0030406
 5139.26595 2.7481916 0.0030314
 5144.41133 2.7536087 0.0030231
 5149.55671 2.7587438 0.0029972
 5154.70209 2.7685578 0.0030126
 5159.84746 2.7765510 0.0030108
 5165.00869 2.7902956 0.0030094
 5170.18576 2.8026383 0.0029898
 5175.34699 2.8192246 0.0029905
 5180.52406 2.8324392 0.0029924
 5185.70113 2.8438215 0.0030121
 5190.89405 2.8550594 0.0030109
 5196.08697 2.8635106 0.0029882
 5201.27989 2.8750951 0.0030015
 5206.48865 2.8788340 0.0029781
 5211.68119 2.8862774 0.0029667
 5216.90580 2.8916619 0.0029641
 5222.11457 2.8908396 0.0029837
 5227.33918 2.8919878 0.0029675
 5232.56380 2.8894110 0.0029689
 5237.80387 2.8816197 0.0029694
 5243.04433 2.8767455 0.0029660
 5248.28479 2.8641365 0.0029589
 5253.52526 2.8492305 0.0029290
 5258.78118 2.8389931 0.0029129
 5264.03749 2.8284438 0.0028929
 5269.30964 2.8175061 0.0028732
 5274.58180 2.8105266 0.0028723
 5279.85357 2.7979274 0.0028549
 5285.12573 2.7909498 0.0028400
 5290.41373 2.7856133 0.0028124
 5295.70135 2.7826164 0.0028044
 5301.00520 2.7829175 0.0028033
 5306.30866 2.7837367 0.0027888
 5311.61251 2.7884195 0.0027818
 5316.91637 2.7928283 0.0027752
 5322.23568 2.7943733 0.0027692
 5327.55538 2.8005161 0.0027460
 5332.89054 2.8032975 0.0027407
 5338.22608 2.8038270 0.0027362
 5343.56124 2.8079636 0.0027319
 5348.91263 2.8023517 0.0027462
 5354.26364 2.7996767 0.0027414
 5359.61504 2.7993004 0.0027342
 5364.96604 2.7933052 0.0027282
 5370.33328 2.7906446 0.0027211
 5375.70014 2.7859278 0.0027803
 5381.08284 2.7749085 0.0027219
 5386.46593 2.7659371 0.0026853
 5391.84863 2.7571476 0.0026871
 5397.24756 2.7502897 0.0027089
 5402.63027 2.7380610 0.0027413
 5408.04466 2.7276361 0.0027761
 5413.44360 2.7144637 0.0028097
 5418.85799 2.6987998 0.0028366
 5424.28824 2.6789079 0.0028514
 5429.70302 2.6565270 0.0028484
 5435.13326 2.6361983 0.0028275
 5440.56351 2.6095233 0.0027939
 5446.00960 2.5845201 0.0027524
 5451.45608 2.5614684 0.0027082
 5456.91801 2.5446730 0.0026553
 5462.36411 2.5277946 0.0026188
 5467.82604 2.5149989 0.0025997
 5473.30383 2.5038860 0.0026102
 5478.76616 2.4917240 0.0026883
 5484.24394 2.4930787 0.0026127
 5489.73757 2.4928820 0.0025948
 5495.23121 2.4989171 0.0025783
 5500.72484 2.5066168 0.0025786
 5506.21847 2.5156143 0.0025794
 5511.72796 2.5260670 0.0025799
 5517.23744 2.5328109 0.0025826
 5522.76315 2.5394855 0.0025860
 5528.28848 2.5427504 0.0025906
 5533.81381 2.5410905 0.0025960
 5539.33914 2.5416434 0.0025992
 5544.88031 2.5344155 0.0026012
 5550.42149 2.5284431 0.0026019
 5555.97851 2.5222664 0.0026013
 5561.53553 2.5143156 0.0025992
 5567.09255 2.5026028 0.0025950
 5572.66504 2.4951310 0.0025715
 5578.23791 2.4851470 0.0025639
 5583.81078 2.4732242 0.0025549
 5589.39950 2.4609993 0.0025459
 5594.98821 2.4396267 0.0025373
 5600.59278 2.4194741 0.0025277
 5606.18150 2.3962803 0.0025179
 5611.78606 2.3707078 0.0025222
 5617.40609 2.3384731 0.0025118
 5623.02650 2.3034594 0.0024850
 5628.64691 2.2683084 0.0024748
 5634.26733 2.2333679 0.0024658
 5639.90359 2.1983666 0.0024574
 5645.53946 2.1644011 0.0024504
 5651.19157 2.1345036 0.0024439
 5656.84367 2.1072969 0.0024387
 5662.51124 2.0852649 0.0024199
 5668.16335 2.0682666 0.0024178
 5673.83130 2.0577562 0.0024164
 5679.51472 2.0557559 0.0024156
 5685.18267 2.0516255 0.0024159
 5690.86648 2.0492878 0.0024294
 5696.56574 2.0472326 0.0024285
 5702.26539 2.0497658 0.0024119
 5707.96504 2.0504479 0.0024096
 5713.68015 2.0490735 0.0024069
 5719.37980 2.0475383 0.0024038
 5725.11075 2.0449734 0.0024008
 5730.82625 2.0438390 0.0023823
 5736.55721 2.0441504 0.0023796
 5742.30440 2.0455647 0.0023920
 5748.03536 2.0459316 0.0023899
 5753.78255 2.0462444 0.0023888
 5759.54520 2.0502133 0.0023737
 5765.30824 2.0560534 0.0023737
 5771.07089 2.0652008 0.0023738
 5776.84978 2.0760279 0.0023742
 5782.61243 2.0898144 0.0023758
 5788.40678 2.1020670 0.0023771
 5794.18567 2.1160769 0.0023781
 5799.98001 2.1274962 0.0023798
 5805.79021 2.1410213 0.0023677
 5811.58494 2.1542289 0.0023679
 5817.41098 2.1613765 0.0023827
 5823.22118 2.1690879 0.0023824
 5829.04761 2.1735518 0.0023674
 5834.87365 2.1754961 0.0023663
 5840.71554 2.1773570 0.0023650
 5846.54158 2.1773295 0.0023771
 5852.39970 2.1746106 0.0023609
 5858.24159 2.1690249 0.0023587
 5864.11518 2.1640363 0.0023574
 5869.97291 2.1603725 0.0023421
 5875.84650 2.1573553 0.0023546
 5881.72047 2.1509006 0.0023536
 5887.59405 2.1443677 0.0023527
 5893.48348 2.1396861 0.0023369
 5899.38876 2.1338086 0.0023489
 5905.27820 2.1291010 0.0023472
 5911.18347 2.1220901 0.0023318
 5917.10460 2.1138270 0.0023298
 5923.00988 2.1038165 0.0023266
 5928.94685 2.0930705 0.0023227
 5934.86798 2.0824292 0.0023185
 5940.80495 2.0680797 0.0023142
 5946.74193 2.0509489 0.0023100
 5952.69475 2.0373609 0.0023056
 5958.64757 2.0232596 0.0023006
 5964.60039 2.0068138 0.0022818
 5970.56906 1.9887640 0.0022892
 5976.53773 1.9718223 0.0022846
 5982.52224 1.9534333 0.0022672
 5988.49091 1.9386855 0.0022920
 5994.49128 1.9192998 0.0022940
 6000.47579 1.9042602 0.0022602
 6006.47577 1.8893528 0.0022579
 6012.49198 1.8733668 0.0022724
 6018.50819 1.8607062 0.0022966
 6024.52440 1.8500375 0.0023118
 6030.54061 1.8413351 0.0023560
 6036.57228 1.8347549 0.0023808
 6042.62019 1.8374448 0.0023824
 6048.65225 1.8380897 0.0024074
 6054.70015 1.8428204 0.0023891
 6060.76352 1.8491565 0.0023762
 6066.82727 1.8645581 0.0023668
 6072.89102 1.8785187 0.0023294
 6078.95439 1.8927796 0.0023033
 6085.03399 1.9074563 0.0022792
 6091.12944 1.9217232 0.0022636
 6097.22450 1.9364591 0.0022513
 6103.31995 1.9512852 0.0023018
 6109.41501 1.9613085 0.0022973
 6115.52630 1.9679015 0.0022815
 6121.63721 1.9698530 0.0023055
 6127.76435 1.9689107 0.0022655
 6133.89111 1.9648415 0.0023467
 6140.03410 1.9546757 0.0022859
 6146.16086 1.9418433 0.0022943
 6152.31969 1.9229039 0.0023295
 6158.46230 1.9018666 0.0023791
 6164.62113 1.8763368 0.0024323
 6170.79543 1.8489823 0.0024796
 6176.97012 1.8162600 0.0025117
 6183.14441 1.7911373 0.0025473
 6189.31871 1.7644318 0.0026258
 6195.50924 1.7345226 0.0025260
 6201.71524 1.7081110 0.0024159
 6207.90538 1.6889507 0.0023692
 6214.12761 1.6706457 0.0023469
 6220.33360 1.6545799 0.0023340
 6226.55544 1.6434462 0.0023337
 6232.77767 1.6359311 0.0023734
 6239.01536 1.6298552 0.0024380
 6245.25304 1.6218615 0.0023633
 6251.50658 1.6214876 0.0024582
 6257.74465 1.6217699 0.0023460
 6264.01404 1.6212765 0.0022987
 6270.26757 1.6241512 0.0022624
 6276.53695 1.6275245 0.0022209
 6282.82218 1.6331202 0.0021842
 6289.10741 1.6369230 0.0021564
 6295.39264 1.6425840 0.0021419
 6301.69411 1.6513658 0.0021712
 6307.99518 1.6586525 0.0022364
 6314.29626 1.6647735 0.0021774
 6320.61319 1.6730593 0.0021796
 6326.93011 1.6802574 0.0021667
 6333.26288 1.6881175 0.0021598
 6339.59565 1.6955413 0.0021531
 6345.92843 1.7047665 0.0021838
 6352.27705 1.7130975 0.0021975
 6358.62567 1.7217834 0.0022289
 6364.99013 1.7280960 0.0022576
 6371.35460 1.7366298 0.0022849
 6377.73453 1.7465867 0.0022918
 6384.09899 1.7555959 0.0023142
 6390.49515 1.7662454 0.0023116
 6396.89132 1.7733752 0.0022834
 6403.28748 1.7794299 0.0022780
 6409.68364 1.7857229 0.0022400
 6416.09526 1.7919693 0.0022148
 6422.50727 1.7948405 0.0021938
 6428.93513 1.7950402 0.0021815
 6435.36298 1.7929147 0.0021884
 6441.79084 1.7911600 0.0022058
 6448.23416 1.7851442 0.0022090
 6454.69371 1.7793144 0.0021846
 6461.13741 1.7719100 0.0021728
 6467.61242 1.7634318 0.0021834
 6474.07198 1.7507974 0.0021705
 6480.54737 1.7403517 0.0021677
 6487.02277 1.7214274 0.0021621
 6493.51325 1.7006253 0.0021590
 6500.00449 1.6801703 0.0021569
 6506.51197 1.6550168 0.0021562
 6513.01868 1.6260974 0.0021439
 6519.52538 1.5980428 0.0021424
 6526.04833 1.5668015 0.0021525
 6532.57127 1.5364147 0.0021365
 6539.10967 1.5024410 0.0021302
 6545.64807 1.4657639 0.0021235
 6552.18647 1.4269714 0.0021171
 6558.74111 1.3909388 0.0021046
 6565.31120 1.3554783 0.0020928
 6571.86584 1.3217123 0.0020838
 6578.45217 1.2927746 0.0020641
 6585.02226 1.2677085 0.0020563
 6591.60859 1.2465720 0.0020631
 6598.19415 1.2276169 0.0020510
 6604.79594 1.2167485 0.0020500
 6611.39851 1.2059935 0.0020471
 6618.01576 1.2031001 0.0020475
 6624.63378 1.2027160 0.0020389
 6631.26727 1.2031438 0.0020439
 6637.88529 1.2062918 0.0020592
 6644.53424 1.2130342 0.0020647
 6651.16773 1.2159494 0.0020608
 6657.81745 1.2214602 0.0020669
 6664.48263 1.2259452 0.0020728
 6671.14781 1.2269568 0.0020802
 6677.81299 1.2282836 0.0020860
 6684.49440 1.2315108 0.0020787
 6691.17505 1.2332501 0.0020843
 6697.87192 1.2345922 0.0021016
 6704.56880 1.2402201 0.0021062
 6711.28191 1.2471946 0.0021112
 6717.99424 1.2572057 0.0021171
 6724.70735 1.2662355 0.0021125
 6731.43592 1.2820548 0.0021186
 6738.16449 1.2964340 0.0021259
 6744.90852 1.3127278 0.0021328
 6751.65333 1.3244013 0.0021397
 6758.39736 1.3348937 0.0021459
 6765.15762 1.3431423 0.0021405
 6771.91789 1.3517302 0.0021459
 6778.69439 1.3596450 0.0021510
 6785.47011 1.3656940 0.0021559
 6792.26207 1.3744774 0.0022166
 6799.05403 1.3812542 0.0021759
 6805.84599 1.3892074 0.0021721
 6812.65341 1.3981659 0.0021886
 6819.47707 1.4063627 0.0022174
 6826.28526 1.4163275 0.0022385
 6833.12438 1.4295540 0.0022751
 6839.94803 1.4407563 0.0023108
 6846.78715 1.4505348 0.0023421
 6853.64250 1.4600704 0.0023657
 6860.49785 1.4716367 0.0023760
 6867.35320 1.4771444 0.0023775
 6874.22401 1.4789635 0.0023706
 6881.09482 1.4766285 0.0023567
 6887.98186 1.4734251 0.0023260
 6894.86890 1.4689357 0.0023089
 6901.75595 1.4636376 0.0022961
 6908.65845 1.4577236 0.0022916
 6915.57719 1.4465624 0.0023049
 6922.47970 1.4392048 0.0023563
 6929.41390 1.4288656 0.0022891
 6936.33264 1.4181073 0.0022830
 6943.26684 1.4078875 0.0022967
 6950.21727 1.3979050 0.0022941
 6957.16770 1.3880922 0.0022643
 6964.13360 1.3720908 0.0022574
 6971.08403 1.3553883 0.0022678
 6978.06539 1.3358301 0.0022918
 6985.04752 1.3169601 0.0023241
 6992.02964 1.2919770 0.0023615
 6999.01100 1.2645898 0.0024011
 7006.02482 1.2340266 0.0024369
 7013.02241 1.2016834 0.0024623
 7020.03624 1.1691049 0.0024743
 7027.06552 1.1360918 0.0024739
 7034.07934 1.1046389 0.0024737
 7041.12409 1.0742809 0.0024504
 7048.15337 1.0461172 0.0024208
 7055.21435 1.0251009 0.0023900
 7062.25987 1.0074002 0.0023681
 7069.33708 0.9948207 0.0023494
 7076.39806 0.9877225 0.0023598
 7083.47450 0.9844874 0.0023537
 7090.56717 0.9811226 0.0023279
 7097.64439 0.9814287 0.0023203
 7104.75252 0.9862737 0.0023126
 7111.84520 0.9905800 0.0023021
 7118.96956 1.0005546 0.0022885
 7126.07847 1.0105311 0.0022736
 7133.20284 1.0254129 0.0022577
 7140.34267 1.0397654 0.0022401
 7147.48327 1.0518377 0.0022217
 7154.63934 1.0711793 0.0021980
 7161.77917 1.0905519 0.0021739
 7168.95146 1.1111525 0.0021519
 7176.12299 1.1331949 0.0021316
 7183.29528 1.1551383 0.0021147
 7190.48227 1.1786604 0.0020888
 7197.67003 1.1987149 0.0020783
 7204.87402 1.2203015 0.0020620
 7212.07724 1.2408648 0.0020496
 7219.28123 1.2615846 0.0020380
 7226.49991 1.2805370 0.0020272
 7233.73560 1.2963256 0.0020175
 7240.97051 1.3128055 0.0020082
 7248.20620 1.3289815 0.0019982
 7255.45657 1.3440270 0.0019879
 7262.70772 1.3563432 0.0019783
 7269.97510 1.3675858 0.0019689
 7277.24171 1.3749352 0.0019580
 7284.52455 1.3811128 0.0019484
 7291.80662 1.3896586 0.0019277
 7299.10570 1.3943828 0.0019170
 7306.40400 1.3971707 0.0019083
 7313.70230 1.3985730 0.0018998
 7321.01684 1.3975798 0.0018889
 7328.34684 1.3943692 0.0018776
 7335.67761 1.3912239 0.0018738
 7343.00761 1.3882612 0.0018806
 7350.35384 1.3838156 0.0018707
 7357.69930 1.3780390 0.0018472
 7365.06099 1.3684024 0.0018449
 7372.42346 1.3573313 0.0018503
 7379.80061 1.3482668 0.0018557
 7387.17854 1.3403873 0.0018620
 7394.57193 1.3311648 0.0018691
 7401.94985 1.3243475 0.0018714
 7409.35870 1.3159539 0.0018612
 7416.76832 1.3080529 0.0018565
 7424.19340 1.3006963 0.0018466
 7431.61849 1.2934947 0.0018323
 7439.04357 1.2840393 0.0018167
 7446.48489 1.2735926 0.0017986
 7453.92620 1.2634361 0.0017824
 7461.38298 1.2553486 0.0017650
 7468.83976 1.2455207 0.0017522
 7476.31199 1.2367136 0.0017478
 7483.80047 1.2261790 0.0017385
 7491.27348 1.2143463 0.0017283
 7498.76195 1.2031065 0.0017157
 7506.26666 1.1911731 0.0017166
 7513.77059 1.1825256 0.0017135
 7521.29076 1.1771495 0.0016982
 7528.81092 1.1746356 0.0016924
 7536.34732 1.1716874 0.0016885
 7543.86749 1.1718441 0.0016838
 7551.41935 1.1712050 0.0016705
 7558.97044 1.1720698 0.0016738
 7566.53853 1.1729896 0.0016689
 7574.10586 1.1729923 0.0016640
 7581.67395 1.1730782 0.0016522
 7589.25751 1.1722567 0.0016494
 7596.84107 1.1726812 0.0016531
 7604.44008 1.1732632 0.0016486
 7612.03910 1.1725709 0.0016363
 7619.65435 1.1715775 0.0016323
 7627.28584 1.1698790 0.0016277
 7634.91655 1.1680661 0.0016136
 7642.54726 1.1667759 0.0016155
 7650.17874 1.1656518 0.0016109
 7657.84115 1.1636169 0.0016064
 7665.48810 1.1627744 0.0015916
 7673.15050 1.1610204 0.0015930
 7680.82914 1.1593461 0.0015879
 7688.50779 1.1582639 0.0015777
 7696.20189 1.1553115 0.0015726
 7703.89599 1.1516707 0.0015739
 7711.60632 1.1481347 0.0015629
 7719.31666 1.1430063 0.0015591
 7727.02699 1.1392787 0.0015554
 7734.76825 1.1340640 0.0015508
 7742.49482 1.1295828 0.0015465
 7750.23608 1.1244428 0.0015425
 7757.99434 1.1189623 0.0015298
 7765.75183 1.1139840 0.0015320
 7773.50932 1.1080385 0.0015211
 7781.29851 1.1016093 0.0015122
 7789.07224 1.0972883 0.0015106
 7796.86142 1.0909228 0.0015011
 7804.66684 1.0862228 0.0014970
 7812.45603 1.0816915 0.0014851
 7820.27691 1.0760063 0.0014910
 7828.09779 1.0700936 0.0014910
 7835.91867 1.0652057 0.0014867
 7843.75578 1.0600843 0.0014934
 7851.60836 1.0549277 0.0015026
 7859.46093 1.0502276 0.0014908
 7867.31351 1.0446655 0.0014827
 7875.18232 1.0411335 0.0014764
 7883.06659 1.0372293 0.0014846
 7890.95086 1.0348455 0.0014968
 7898.83513 1.0335031 0.0015045
 7906.73486 1.0309190 0.0015052
 7914.63537 1.0292134 0.0015178
 7922.55133 1.0288390 0.0015207
 7930.48276 1.0275011 0.0015168
 7938.41496 1.0298377 0.0014930
 7946.34638 1.0312089 0.0014596
 7954.29404 1.0341442 0.0014437
 7962.24170 1.0339800 0.0014140
 7970.20482 1.0344050 0.0013948
 7978.18418 1.0356055 0.0013779
 7986.16353 1.0357194 0.0013694
 7994.15912 1.0345007 0.0013680
 8002.13847 1.0342422 0.0013785
 8010.14952 1.0327902 0.0013482
 8018.15980 1.0316499 0.0013347
 8026.17085 1.0303801 0.0013153
 8034.19813 1.0300742 0.0013094
 8042.24010 1.0283608 0.0012912
 8050.28285 1.0260669 0.0012832
 8058.32559 1.0226133 0.0012683
 8066.38380 1.0203909 0.0012665
 8074.45823 1.0179911 0.0012857
 8082.53267 1.0144843 0.0013296
 8090.60711 1.0125942 0.0012705
 8098.69701 1.0093989 0.0012549
 8106.80315 1.0061029 0.0012735
 8114.90928 1.0024594 0.0012964
 8123.03087 1.0000234 0.0013353
 8131.15247 0.9976421 0.0013703
 8139.27406 0.9933859 0.0014112
 8147.42813 0.9908713 0.0014370
 8155.56518 0.9891508 0.0014518
 8163.71924 0.9858186 0.0014446
 8171.88799 0.9837000 0.0014217
 8180.05752 0.9819163 0.0013838
 8188.24250 0.9803371 0.0013516
 8196.42749 0.9767432 0.0013139
 8204.62870 0.9736412 0.0012869
 8212.82915 0.9709765 0.0012634
 8221.04660 0.9675508 0.0012630
 8229.26328 0.9631000 0.0012997
 8237.49542 0.9597461 0.0013016
 8245.72833 0.9572595 0.0012530
 8253.97671 0.9551269 0.0012450
 8262.24131 0.9520558 0.0012378
 8270.48969 0.9489869 0.0012311
 8278.76976 0.9459463 0.0012235
 8287.04982 0.9425675 0.0012111
 8295.32989 0.9388275 0.0012100
 8303.62542 0.9349424 0.0011966
 8311.93718 0.9326842 0.0011869
 8320.24895 0.9286133 0.0011793
 8328.56071 0.9249777 0.0011722
 8336.88871 0.9232255 0.0011617
 8345.23217 0.9196921 0.0011498
 8353.57562 0.9162019 0.0011462
 8361.93454 0.9109178 0.0011344
 8370.29424 0.9062099 0.0011229
 8378.66862 0.9018509 0.0011230
 8387.04377 0.8968410 0.0011195
 8395.43515 0.8938144 0.0011120
 8403.82577 0.8902676 0.0011076
 8412.23262 0.8865019 0.0011056
 8420.63946 0.8822346 0.0011035
 8429.06177 0.8773820 0.0011005
 8437.50031 0.8735731 0.0010912
 8445.93886 0.8691674 0.0010907
 8454.37740 0.8650735 0.0010846
 8462.83140 0.8607079 0.0010732
 8471.30164 0.8574609 0.0010649
 8479.77188 0.8512401 0.0010622
 8488.25757 0.8466676 0.0010509
 8496.72781 0.8426874 0.0010438
 8505.22974 0.8383443 0.0010421
 8513.74714 0.8339472 0.0010406
 8522.24907 0.8290516 0.0010321
 8530.78192 0.8251587 0.0010249
 8539.30009 0.8212965 0.0010227
 8547.84918 0.8178173 0.0010231
 8556.39826 0.8143345 0.0010335
 8564.94735 0.8090943 0.0010429
 8573.51267 0.8045176 0.0010452
 8582.09345 0.8011833 0.0010451
 8590.67424 0.7968657 0.0010548
 8599.27125 0.7922832 0.0010680
 8607.86750 0.7886872 0.0010804
 8616.48075 0.7848812 0.0010883
 8625.09322 0.7801803 0.0011050
 8633.72116 0.7750803 0.0011103
 8642.34987 0.7687267 0.0011125
 8650.99404 0.7630846 0.0011090
 8659.63822 0.7582058 0.0011105
 8668.29862 0.7544469 0.0011016
 8676.97449 0.7494901 0.0010930
 8685.65036 0.7447440 0.0010763
 8694.34168 0.7402516 0.0010626
 8703.03378 0.7381720 0.0010434
 8711.74135 0.7362357 0.0010301
 8720.44891 0.7335024 0.0010269
 8729.17193 0.7308933 0.0010167
 8737.89573 0.7295696 0.0010028
 8746.63498 0.7283733 0.0009874
 8755.37424 0.7280543 0.0009778
 8764.12896 0.7277391 0.0009685
 8772.89991 0.7288269 0.0009592
 8781.67086 0.7295313 0.0009531
 8790.45727 0.7311537 0.0009400
 8799.24445 0.7311891 0.0009310
 8808.04710 0.7311804 0.0009227
 8816.86521 0.7312067 0.0009199
 8825.66785 0.7323646 0.0009168
 8834.50219 0.7325035 0.0009092
 8843.33576 0.7323824 0.0009048
 8852.18634 0.7318365 0.0009039
 8861.03614 0.7308046 0.0009028
 8869.88594 0.7310882 0.0008952
 8878.76821 0.7289378 0.0008916
 8887.64970 0.7273486 0.0008887
 8896.53120 0.7248493 0.0008858
 8905.42893 0.7225190 0.0008823
 8914.32666 0.7216842 0.0008760
 8923.23985 0.7205778 0.0008722
 8932.16928 0.7195908 0.0008694
 8941.09793 0.7183411 0.0008679
 8950.04359 0.7184027 0.0008669
 8959.00393 0.7187487 0.0008645
 8967.94959 0.7181128 0.0008637
 8976.92617 0.7170747 0.0008645
 8985.90275 0.7156275 0.0008647
 8994.87933 0.7143698 0.0008648
 9003.88761 0.7127388 0.0008649
 9012.88042 0.7119080 0.0008643
 9021.90416 0.7088088 0.0008696
 9030.92867 0.7060544 0.0008670
 9039.95318 0.7029182 0.0008590
 9048.99315 0.6987262 0.0008565
 9058.04858 0.6949375 0.0008620
 9067.10479 0.6912152 0.0008772
 9076.17645 0.6885047 0.0008869
 9085.24811 0.6869612 0.0008932
 9094.33524 0.6839125 0.0009053
 9103.42314 0.6808510 0.0009220
 9112.52650 0.6780806 0.0009408
 9121.64532 0.6763139 0.0009531
 9130.76491 0.6736001 0.0009622
 9139.89997 0.6712481 0.0009662
 9149.03502 0.6682635 0.0009760
 9158.18554 0.6649578 0.0009609
 9167.33683 0.6635166 0.0009601
 9176.51904 0.6631033 0.0009590
 9185.68579 0.6617486 0.0009641
 9194.88423 0.6593707 0.0009671
 9204.06644 0.6581156 0.0009603
 9213.28112 0.6558669 0.0009568
 9222.49502 0.6543087 0.0009550
 9231.70893 0.6538465 0.0009476
 9240.93907 0.6540195 0.0009488
 9250.18544 0.6526741 0.0009312
 9259.43104 0.6501058 0.0009200
 9268.69287 0.6471737 0.0009118
 9277.97017 0.6439778 0.0008969
 9287.24746 0.6410782 0.0008826
 9296.52476 0.6385365 0.0008740
 9305.83452 0.6343343 0.0008643
 9315.12727 0.6313072 0.0008543
 9324.45250 0.6280190 0.0008503
 9333.77772 0.6249844 0.0008321
 9343.10294 0.6220920 0.0008306
 9352.45909 0.6199012 0.0008265
 9361.80055 0.6178201 0.0008456
 9371.17293 0.6169581 0.0008333
 9380.54530 0.6174662 0.0008304
 9389.91768 0.6174111 0.0008360
 9399.30630 0.6180555 0.0008424
 9408.71037 0.6173440 0.0008446
 9418.11444 0.6165546 0.0008543
 9427.53398 0.6146363 0.0008625
 9436.97052 0.6131738 0.0008760
 9446.40629 0.6116406 0.0008726
 9455.84206 0.6094772 0.0008657
 9465.30952 0.6077652 0.0008634
 9474.77698 0.6060387 0.0008777
 9484.24445 0.6040334 0.0008704
 9493.72737 0.6014481 0.0008500
 9503.22653 0.5985116 0.0008502
 9512.72569 0.5954155 0.0008542
 9522.24108 0.5923916 0.0008699
 9531.77193 0.5903598 0.0008991
 9541.30278 0.5895711 0.0009703
 9550.84910 0.5889218 0.0009849
 9560.39618 0.5888190 0.0010240
 9569.95873 0.5876499 0.0010549
 9579.52051 0.5877711 0.0010695
 9589.09929 0.5858425 0.0010639
 9598.69353 0.5818532 0.0010499
 9608.28777 0.5777068 0.0010301
 9617.89747 0.5764322 0.0010043
 9627.52341 0.5741743 0.0009367
 9637.14935 0.5718083 0.0008924
 9646.79075 0.5681527 0.0008642
 9656.43215 0.5655692 0.0008742
 9666.08978 0.5619656 0.0008586
 9675.74741 0.5576502 0.0008515
 9685.43674 0.5538910 0.0008577
 9695.12529 0.5494098 0.0008609
 9704.81462 0.5426980 0.0008674
 9714.51940 0.5391477 0.0008888
 9724.24043 0.5358092 0.0008982
 9733.96145 0.5331588 0.0009150
 9743.69793 0.5294942 0.0009241
 9753.43441 0.5274225 0.0009289
 9763.18713 0.5237390 0.0009235
 9772.95530 0.5200258 0.0009258
 9782.72348 0.5153554 0.0009334
 9792.50789 0.5141755 0.0009313
 9802.30776 0.5135296 0.0009244
 9812.10764 0.5118689 0.0008956
 9821.92374 0.5114737 0.0008836
 9831.73908 0.5097414 0.0008771
 9841.57064 0.5089931 0.0008854
 9851.41844 0.5075909 0.0008910
 9861.26624 0.5065116 0.0009175
 9871.12950 0.5042859 0.0009207
 9881.00823 0.4992468 0.0009116
 9890.87149 0.4956472 0.0009001
 9900.76644 0.4936915 0.0009132
 9910.67763 0.4898882 0.0008982
 9920.58805 0.4855477 0.0009074
 9930.51470 0.4822369 0.0008965
 9940.44135 0.4792450 0.0008823
 9950.38347 0.4770245 0.0008613
 9960.32635 0.4745291 0.0008655
 9970.28470 0.4733669 0.0008466
 9980.25850 0.4729576 0.0008471
 9990.24854 0.4737709 0.0008403
 10000.23858 0.4749226 0.0008461
 10010.22863 0.4770781 0.0008323
 10020.25036 0.4782399 0.0008249
 10030.27210 0.4791882 0.0008199
 10040.29306 0.4795326 0.0008195
 10050.33103 0.4822390 0.0008382
 10060.38446 0.4836634 0.0008223
 10070.45335 0.4840423 0.0008075
 10080.52224 0.4859266 0.0007975
 10090.59113 0.4856094 0.0007900
 10100.69249 0.4861657 0.0007812
 10110.79308 0.4861235 0.0007687
 10120.90989 0.4867640 0.0007587
 10131.02594 0.4862806 0.0007503
 10141.15822 0.4862733 0.0007432
 10151.30674 0.4857457 0.0007372
 10161.43902 0.4847956 0.0007211
 10171.60377 0.4834211 0.0007134
 10181.78320 0.4822561 0.0007121
 10191.96341 0.4805969 0.0007077
 10202.15908 0.4789886 0.0006980
 10212.35475 0.4774414 0.0006889
 10222.58212 0.4748454 0.0006860
 10232.79402 0.4734932 0.0006840
 10243.02139 0.4724606 0.0006832
 10253.28045 0.4718553 0.0006745
 10263.52327 0.4702611 0.0006718
 10273.78233 0.4701843 0.0006702
 10284.05762 0.4707166 0.0006689
 10294.34838 0.4714908 0.0006641
 10304.63913 0.4721723 0.0006595
 10314.94535 0.4730685 0.0006643
 10325.26780 0.4744431 0.0006695
 10335.59025 0.4750965 0.0006697
 10345.92893 0.4771350 0.0006654
 10356.26684 0.4769659 0.0006654
 10366.62098 0.4766112 0.0006717
 10376.99136 0.4758135 0.0006864
 10387.37643 0.4757581 0.0007053
 10397.76227 0.4745088 0.0007336
 10408.16434 0.4738549 0.0007520
 10418.56564 0.4718704 0.0007574
 10428.98317 0.4718066 0.0007686
 10439.41617 0.4693072 0.0007867
 10449.86540 0.4679925 0.0007969
 10460.31463 0.4652748 0.0008223
 10470.76385 0.4643688 0.0008183
 10481.24400 0.4622513 0.0008099
 10491.72493 0.4610926 0.0008047
 10502.22131 0.4597875 0.0008255
 10512.71847 0.4589526 0.0008177
 10523.23031 0.4579217 0.0008289
 10533.75916 0.4567235 0.0008471
 10544.28724 0.4556181 0.0008655
 10554.83078 0.4522488 0.0008407
 10565.39133 0.4498523 0.0008258
 10575.95110 0.4476106 0.0008333
 10586.52634 0.4475010 0.0008569
 10597.11781 0.4464395 0.0008915
 10607.71005 0.4475749 0.0008523
 10618.31698 0.4465138 0.0008246
 10628.94014 0.4453515 0.0008054
 10639.56330 0.4430338 0.0007826
 10650.21816 0.4409563 0.0007718
 10660.85756 0.4393685 0.0007521
 10671.52788 0.4367096 0.0007196
 10682.19897 0.4334852 0.0006946
 10692.88552 0.4304158 0.0006811
 10703.57207 0.4277637 0.0006730
 10714.27409 0.4251853 0.0006494
 10724.99234 0.4223873 0.0006359
 10735.71058 0.4187506 0.0006435
 10746.46053 0.4160060 0.0006387
 10757.19501 0.4139640 0.0006249
 10767.96041 0.4121751 0.0006113
 10778.72659 0.4106111 0.0006122
 10789.50745 0.4099109 0.0006216
 10800.30532 0.4077510 0.0006256
 10811.10242 0.4056222 0.0006254
 10821.91575 0.4033087 0.0006343
 10832.72908 0.4012443 0.0006525
 10843.55788 0.3997986 0.0006746
 10854.40290 0.3981465 0.0006887
 10865.26339 0.3969223 0.0006940
 10876.12465 0.3943587 0.0006957
 10887.00060 0.3923042 0.0006936
 10897.89355 0.3899313 0.0006816
 10908.78574 0.3878534 0.0006734
 10919.70961 0.3859330 0.0006703
 10930.61803 0.3834580 0.0006543
 10941.55737 0.3825463 0.0006285
 10952.49748 0.3808766 0.0006118
 10963.43759 0.3802748 0.0006021
 10974.40862 0.3786493 0.0006059
 10985.38043 0.3776689 0.0006267
 10996.36770 0.3766753 0.0006549
 11007.37120 0.3752540 0.0006891
 11018.37392 0.3752380 0.0006749
 11029.39288 0.3763529 0.0006871
 11040.42808 0.3769206 0.0007043
 11051.46328 0.3780844 0.0007400
 11062.51393 0.3781721 0.0007797
 11073.58005 0.3783061 0.0008121
 11084.66240 0.3775704 0.0007838
 11095.74475 0.3780665 0.0007953
 11106.82710 0.3775320 0.0008383
 11117.94115 0.3768000 0.0008693
 11129.07065 0.3772722 0.0008695
 11140.18470 0.3764173 0.0009038
 11151.33044 0.3772805 0.0009245
 11162.49242 0.3755136 0.0009463
 11173.63816 0.3757142 0.0009076
 11184.81559 0.3743348 0.0008985
 11196.00849 0.3741793 0.0009250
 11207.20138 0.3746409 0.0009792
 11218.41051 0.3748997 0.0009201
 11229.63510 0.3736987 0.0008405
 11240.86047 0.3722275 0.0008071
 11252.10129 0.3716412 0.0007702
 11263.35758 0.3713290 0.0007800
 11274.61387 0.3701142 0.0007805
 11285.88638 0.3694660 0.0007254
 11297.17437 0.3684976 0.0006873
 11308.47858 0.3683242 0.0006872
 11319.78279 0.3672122 0.0006705
 11331.10247 0.3655655 0.0006461
 11342.43761 0.3648176 0.0006287
 11353.77352 0.3633506 0.0006111
 11365.14112 0.3632440 0.0006118
 11376.50795 0.3624259 0.0006002
 11387.87555 0.3607433 0.0005822
 11399.25862 0.3589059 0.0005770
 11410.67338 0.3575667 0.0005782
 11422.07268 0.3562373 0.0005723
 11433.50290 0.3538269 0.0005654
 11444.93389 0.3512639 0.0005501
 11456.38035 0.3485003 0.0005448
 11467.84303 0.3459147 0.0005420
 11479.30495 0.3434953 0.0005435
 11490.78310 0.3408728 0.0005394
 11502.27748 0.3380281 0.0005335
 11513.78655 0.3351510 0.0005257
 11525.29640 0.3326737 0.0005231
 11536.82248 0.3300140 0.0005213
 11548.36401 0.3275657 0.0005225
 11559.90555 0.3267308 0.0005214
 11571.46255 0.3251203 0.0005207
 11583.03579 0.3240459 0.0005242
 11594.62448 0.3222277 0.0005339
 11606.21395 0.3203092 0.0005411
 11617.81888 0.3188457 0.0005434
 11629.43927 0.3174756 0.0005362
 11641.07589 0.3155103 0.0005491
 11652.71174 0.3124960 0.0005705
 11664.36460 0.3095031 0.0006044
 11676.03291 0.3065951 0.0006416
 11687.71669 0.3026570 0.0006872
 11699.40047 0.2983644 0.0007341
 11711.10048 0.2937936 0.0007822
 11722.79972 0.2888734 0.0008298
 11734.53143 0.2844190 0.0008738
 11746.26314 0.2817712 0.0008964
 11758.01031 0.2779747 0.0009367
 11769.77371 0.2743670 0.0009343
 11781.53634 0.2724654 0.0009637
 11793.31520 0.2686624 0.0009190
 11805.11030 0.2661721 0.0009833
 11816.92086 0.2650266 0.0009805
 11828.74765 0.2643403 0.0009787
 11840.57367 0.2626296 0.0010111
 11852.41592 0.2616999 0.0010165
 11864.25817 0.2616498 0.0010433
 11876.13212 0.2605149 0.0010102
 11888.00607 0.2607683 0.0010097
 11899.89625 0.2605941 0.0011006
 11911.80189 0.2609943 0.0010922
 11923.70753 0.2610226 0.0010373
 11935.62864 0.2606309 0.0009486
 11947.56597 0.2620869 0.0009105
 11959.51877 0.2633269 0.0008776
 11971.47234 0.2641471 0.0008574
 11983.44138 0.2625915 0.0008904
 11995.42587 0.2623240 0.0008337
 12007.42659 0.2623367 0.0008075
 12019.42732 0.2634909 0.0007697
 12031.45974 0.2637997 0.0007723
 12043.49139 0.2642420 0.0007384
 12055.54005 0.2645432 0.0007105
 12067.58793 0.2654574 0.0007115
 12079.65204 0.2653409 0.0007136
 12091.73162 0.2650762 0.0006931
 12103.82743 0.2653480 0.0006919
 12115.93870 0.2652715 0.0006729
 12128.04998 0.2653967 0.0006862
 12140.17748 0.2662529 0.0007082
 12152.32045 0.2657620 0.0007479
 12164.46342 0.2655449 0.0007757
 12176.63808 0.2649385 0.0007791
 12188.81274 0.2653574 0.0008036
 12201.00363 0.2643994 0.0008054
 12213.20999 0.2638336 0.0008129
 12225.41635 0.2638564 0.0008118
 12237.65440 0.2632239 0.0007953
 12249.87699 0.2633221 0.0007928
 12262.13050 0.2635373 0.0007824
 12274.40024 0.2632879 0.0007803
 12286.66999 0.2630926 0.0007762
 12298.95597 0.2625687 0.0007792
 12311.25741 0.2622457 0.0007872
 12323.57431 0.2620567 0.0008034
 12335.89121 0.2613942 0.0008295
 12348.22435 0.2613929 0.0008551
 12360.57372 0.2606873 0.0008857
 12372.93855 0.2594451 0.0008758
 12385.30338 0.2598753 0.0008970
 12397.69913 0.2589591 0.0008859
 12410.09565 0.2582854 0.0008967
 12422.50841 0.2579399 0.0009256
 12434.93586 0.2570392 0.0009429
 12447.36408 0.2558355 0.0009413
 12459.80776 0.2546396 0.0009546
 12472.28391 0.2525257 0.0009770
 12484.74305 0.2504983 0.0010250
 12497.23466 0.2486726 0.0011165
 12509.72627 0.2468273 0.0011026
 12522.24957 0.2450753 0.0011047
 12534.77210 0.2438693 0.0011318
 12547.29541 0.2426048 0.0011491
 12559.85041 0.2390859 0.0011498
 12572.40463 0.2368514 0.0011526
 12584.97509 0.2354240 0.0011769
 12597.56179 0.2337016 0.0011857
 12610.16394 0.2315894 0.0012120
 12622.76609 0.2283208 0.0012325
 12635.39994 0.2271322 0.0012327
 12648.03379 0.2264893 0.0012618
 12660.68388 0.2250312 0.0012977
 12673.34942 0.2231109 0.0013323
 12686.01496 0.2215159 0.0013595
 12698.71220 0.2198246 0.0013563
 12711.40944 0.2170350 0.0014346
 12724.10668 0.2145360 0.0015427
 12736.83484 0.2136889 0.0015607
 12749.58001 0.2124681 0.0015489
 12762.32440 0.2120610 0.0015563
 12775.10126 0.2119848 0.0015830
 12787.86112 0.2109710 0.0016359
 12800.65344 0.2109337 0.0017273
 12813.46200 0.2110795 0.0018869
 12826.26978 0.2122135 0.0020849
 12839.09380 0.2130800 0.0021993
 12851.93328 0.2144789 0.0023836
 12864.78899 0.2160915 0.0026139
 12877.66017 0.2180276 0.0029446
 12890.53134 0.2204056 0.0033598
 12903.41875 0.2229363 0.0040258
 12916.33785 0.2287327 0.0047394
 12929.24072 0.2359039 0.0058301
 12942.17528 0.2425601 0.0067758
