# SOURCE  = 'Quimby et al. 2018' /                                                
# OBJECT  = 'PTF09cnd'           /                                                
# Z       =             0.258500 / wavelengths in OBSERVER FRAME                 
# NORM    =          7.76240E-16 / fluxes divided by norm                         
# CLIPPED =                    1 / galaxy emission lines removed                  
# SMOOTHED=                    1 / spectrum has been smoothed                     
# COLUMN01= 'Wavelength (Angstrom)' /                                             
# COLUMN02= 'Flux Density (erg/s/cm2/A)' /                                        
# COLUMN03= 'Flux Density Uncertainty (erg/s/cm2/A)' /                            
# END                                                                             
# 
# 
# 
# 
# 
# 
# 
# 
# 
# 
# Converted to Observer Frame using z=0.258
 3990.92884 1.7370135 0.0177218
 3994.91852 1.7615026 0.0171853
 3998.92404 1.7926329 0.0166698
 4002.91333 1.8099363 0.0162067
 4006.91886 1.8276173 0.0157612
 4010.92438 1.8570216 0.0152161
 4014.94575 1.8890362 0.0148254
 4018.95128 1.9258868 0.0144595
 4022.97265 1.9576592 0.0141175
 4026.99402 1.9808291 0.0138128
 4031.01501 1.9948550 0.0135218
 4035.05223 2.0120330 0.0132534
 4039.08945 2.0298092 0.0132178
 4043.12667 2.0425522 0.0133143
 4047.17973 2.0818732 0.0127055
 4051.21657 2.1055312 0.0121700
 4055.26963 2.1154597 0.0119047
 4059.32270 2.1369939 0.0116903
 4063.39161 2.1532376 0.0115267
 4067.44429 2.1607869 0.0113760
 4071.51321 2.1643732 0.0112452
 4075.58212 2.1630301 0.0111065
 4079.66688 2.1583703 0.0109689
 4083.75126 2.1495588 0.0107416
 4087.82017 2.1294706 0.0105654
 4091.92078 2.0988305 0.0103776
 4096.00516 2.0577893 0.0102080
 4100.10577 2.0092967 0.0100230
 4104.20638 1.9627641 0.0098393
 4108.30660 1.9093415 0.0096696
 4112.42305 1.8563215 0.0093561
 4116.52328 1.8048631 0.0091401
 4120.63973 1.7418665 0.0089483
 4124.77204 1.6806947 0.0087358
 4128.88811 1.6239223 0.0085434
 4133.02041 1.5708402 0.0083420
 4137.15233 1.5147702 0.0081500
 4141.30048 1.4650561 0.0079146
 4145.43240 1.4151334 0.0077359
 4149.58055 1.3666946 0.0075818
 4153.72831 1.3178008 0.0074200
 4157.87646 1.2743891 0.0072661
 4162.04008 1.2256083 0.0071459
 4166.20407 1.1938258 0.0069632
 4170.36769 1.1636721 0.0068954
 4174.54753 1.1316563 0.0067150
 4178.71114 1.0989753 0.0065659
 4182.89099 1.0677398 0.0064328
 4187.07045 1.0432639 0.0062897
 4191.26614 1.0108114 0.0061136
 4195.46145 0.9815437 0.0059929
 4199.65676 0.9580696 0.0058843
 4203.85245 0.9319408 0.0058039
 4208.06360 0.9128283 0.0057208
 4212.25930 0.8925069 0.0056225
 4216.47045 0.8789477 0.0055582
 4220.69745 0.8686827 0.0055197
 4224.90899 0.8609304 0.0054702
 4229.13600 0.8578946 0.0054260
 4233.36300 0.8570083 0.0054040
 4237.60623 0.8656209 0.0053297
 4241.83323 0.8819382 0.0053019
 4246.07608 0.9073549 0.0052512
 4250.33478 0.9361876 0.0052177
 4254.57802 0.9714043 0.0051608
 4258.83671 1.0128369 0.0050839
 4263.09541 1.0547196 0.0050250
 4267.35410 1.0988721 0.0049654
 4271.62904 1.1468116 0.0049225
 4275.90358 1.2005230 0.0048312
 4280.17812 1.2510974 0.0048631
 4284.45267 1.3039635 0.0049167
 4288.74306 1.3683296 0.0048011
 4293.01799 1.4231162 0.0047258
 4297.32423 1.4819875 0.0046704
 4301.61462 1.5371628 0.0046619
 4305.92086 1.5918632 0.0046868
 4310.22710 1.6454210 0.0047017
 4314.53333 1.7002648 0.0047263
 4318.85542 1.7533605 0.0047569
 4323.16166 1.8057283 0.0048075
 4327.48374 1.8570052 0.0048298
 4331.82168 1.9092580 0.0048698
 4336.14415 1.9564673 0.0048356
 4340.48208 2.0054083 0.0048875
 4344.82002 2.0483496 0.0049958
 4349.17380 2.0945778 0.0049140
 4353.52758 2.1461587 0.0047859
 4357.88136 2.1942265 0.0047663
 4362.23514 2.2367489 0.0048338
 4366.58892 2.2797444 0.0048355
 4370.95855 2.3174064 0.0046981
 4375.32818 2.3497188 0.0046997
 4379.71327 2.3777018 0.0047027
 4384.08289 2.4031019 0.0047360
 4388.46837 2.4198561 0.0047527
 4392.86969 2.4387794 0.0048298
 4397.25517 2.4465244 0.0049169
 4401.65649 2.4487450 0.0049155
 4406.05781 2.4430056 0.0048379
 4410.45914 2.4358020 0.0048088
 4414.87631 2.4265549 0.0047357
 4419.29309 2.4122758 0.0045640
 4423.71026 2.3947115 0.0044664
 4428.12743 2.3794465 0.0043871
 4432.56045 2.3650990 0.0043268
 4436.99347 2.3508098 0.0042265
 4441.42648 2.3339446 0.0041852
 4445.87496 2.3209000 0.0041415
 4450.32383 2.3042746 0.0041480
 4454.77269 2.2932458 0.0041898
 4459.22156 2.2799909 0.0041528
 4463.68588 2.2754052 0.0040911
 4468.15060 2.2735445 0.0041266
 4472.61531 2.2732036 0.0042452
 4477.07964 2.2709899 0.0041394
 4481.56020 2.2773232 0.0040622
 4486.04076 2.2803361 0.0040367
 4490.53678 2.2877140 0.0040210
 4495.01734 2.2921019 0.0039869
 4499.51374 2.2988553 0.0039592
 4504.02561 2.3044107 0.0039535
 4508.52202 2.3075967 0.0039309
 4513.03427 2.3121979 0.0039007
 4517.54614 2.3150489 0.0038994
 4522.05840 2.3173640 0.0038823
 4526.58611 2.3185501 0.0038624
 4531.11421 2.3193705 0.0038462
 4535.64232 2.3221428 0.0038534
 4540.18588 2.3196356 0.0038414
 4544.71398 2.3188472 0.0038355
 4549.25754 2.3149610 0.0038565
 4553.81734 2.3132463 0.0038289
 4558.36090 2.3077605 0.0038488
 4562.92070 2.3031669 0.0038669
 4567.49596 2.3059258 0.0038330
 4572.05575 2.3098686 0.0038491
 4576.63101 2.3105645 0.0038617
 4581.20627 2.3191197 0.0038190
 4585.78191 2.3259175 0.0038232
 4590.37302 2.3272152 0.0038296
 4594.96451 2.3378389 0.0037850
 4599.55562 2.3481989 0.0037911
 4604.16257 2.3570421 0.0037751
 4608.76991 2.3656776 0.0037508
 4613.37686 2.3743327 0.0037521
 4617.98381 2.3866262 0.0037054
 4622.60700 2.3975987 0.0037103
 4627.22980 2.4093313 0.0037157
 4631.85260 2.4180493 0.0036732
 4636.49163 2.4257240 0.0036829
 4641.13028 2.4284866 0.0036985
 4645.76893 2.4357467 0.0036680
 4650.40796 2.4407623 0.0036860
 4655.06246 2.4429696 0.0036763
 4659.71695 2.4489362 0.0036876
 4664.37144 2.4544370 0.0036707
 4669.04179 2.4551511 0.0037354
 4673.71252 2.4498005 0.0037518
 4678.38286 2.4437406 0.0036537
 4683.06905 2.4281747 0.0036175
 4687.73939 2.4159009 0.0036579
 4692.42558 2.3993299 0.0036662
 4697.12800 2.3764546 0.0037396
 4701.83004 2.3517087 0.0037856
 4706.53208 2.3278644 0.0038102
 4711.23411 2.2992678 0.0038100
 4715.95200 2.2733159 0.0037965
 4720.65403 2.2467661 0.0037164
 4725.38776 2.2255223 0.0036182
 4730.10565 2.2064579 0.0035582
 4734.83938 2.1946285 0.0034586
 4739.57311 2.1844068 0.0034018
 4744.30684 2.1777444 0.0033216
 4749.05642 2.1732821 0.0032762
 4753.80600 2.1724396 0.0032864
 4758.55558 2.1769807 0.0032905
 4763.32101 2.1798341 0.0032935
 4768.08643 2.1794481 0.0032136
 4772.85186 2.1848483 0.0032043
 4777.61729 2.1864984 0.0031943
 4782.39856 2.1941168 0.0031807
 4787.17983 2.1997740 0.0031723
 4791.97695 2.2082696 0.0031686
 4796.75823 2.2151141 0.0031652
 4801.55535 2.2252066 0.0031394
 4806.36832 2.2299366 0.0031585
 4811.16505 2.2430050 0.0031316
 4815.97802 2.2540591 0.0031487
 4820.79099 2.2612944 0.0031390
 4825.61981 2.2669909 0.0031031
 4830.44862 2.2730913 0.0031099
 4835.27705 2.2749839 0.0030705
 4840.10587 2.2745559 0.0030466
 4844.95053 2.2777469 0.0030447
 4849.79519 2.2828128 0.0030002
 4854.63986 2.2846434 0.0029727
 4859.49998 2.2842951 0.0029547
 4864.36049 2.2872841 0.0029333
 4869.22100 2.2893915 0.0029135
 4874.09697 2.2934394 0.0028980
 4878.97333 2.2964227 0.0028794
 4883.84969 2.3001871 0.0028659
 4888.72566 2.3008711 0.0028584
 4893.61787 2.3062987 0.0028507
 4898.51007 2.3079455 0.0029085
 4903.41774 2.3152478 0.0028626
 4908.30995 2.3137424 0.0028457
 4913.21800 2.3093402 0.0028281
 4918.14151 2.3022525 0.0028485
 4923.06541 2.2978833 0.0028991
 4927.97308 2.2871432 0.0029079
 4932.91283 2.2783384 0.0029324
 4937.83634 2.2730653 0.0029453
 4942.77609 2.2716510 0.0029516
 4947.71545 2.2690396 0.0029397
 4952.67104 2.2611823 0.0029177
 4957.62625 2.2612391 0.0028843
 4962.58185 2.2568889 0.0028387
 4967.53706 2.2522163 0.0027847
 4972.50850 2.2531116 0.0027154
 4977.47956 2.2546012 0.0026914
 4982.46685 2.2547314 0.0026651
 4987.43790 2.2564507 0.0026462
 4992.42480 2.2541032 0.0027107
 4997.42794 2.2508531 0.0026989
 5002.41484 2.2453446 0.0026670
 5007.41798 2.2397549 0.0026570
 5012.43658 2.2349806 0.0026668
 5017.43933 2.2298748 0.0026948
 5022.45832 2.2236655 0.0026859
 5027.49276 2.2247136 0.0026939
 5032.51136 2.2268240 0.0026993
 5037.54580 2.2304277 0.0027010
 5042.58064 2.2338686 0.0027016
 5047.63093 2.2334862 0.0027039
 5052.68122 2.2351830 0.0027021
 5057.73152 2.2334030 0.0026814
 5062.78219 2.2355330 0.0026951
 5067.84834 2.2390485 0.0026871
 5072.91448 2.2370706 0.0026757
 5077.99646 2.2302909 0.0026481
 5083.06260 2.2244530 0.0026570
 5088.14498 2.2127907 0.0026482
 5093.24281 2.2058122 0.0026395
 5098.32480 2.1987350 0.0026134
 5103.43848 2.1908171 0.0026037
 5108.53632 2.1842744 0.0025937
 5113.65000 2.1756289 0.0026020
 5118.76368 2.1728330 0.0025762
 5123.87737 2.1696787 0.0025662
 5129.00690 2.1679418 0.0025556
 5134.13642 2.1678107 0.0025442
 5139.26595 2.1681397 0.0025330
 5144.41133 2.1671612 0.0025190
 5149.55671 2.1656563 0.0025048
 5154.70209 2.1646719 0.0024939
 5159.84746 2.1605680 0.0024704
 5165.00869 2.1599805 0.0024627
 5170.18576 2.1555328 0.0024576
 5175.34699 2.1527448 0.0024709
 5180.52406 2.1509461 0.0024704
 5185.70113 2.1495366 0.0025049
 5190.89405 2.1496196 0.0024922
 5196.08697 2.1495128 0.0024520
 5201.27989 2.1543281 0.0024525
 5206.48865 2.1546426 0.0024764
 5211.68119 2.1551864 0.0025060
 5216.90580 2.1594098 0.0025428
 5222.11457 2.1595385 0.0025808
 5227.33918 2.1647160 0.0026114
 5232.56380 2.1691272 0.0026300
 5237.80387 2.1740117 0.0027323
 5243.04433 2.1730576 0.0026296
 5248.28479 2.1733613 0.0025804
 5253.52526 2.1772206 0.0025558
 5258.78118 2.1787527 0.0025562
 5264.03749 2.1833184 0.0025420
 5269.30964 2.1836450 0.0025332
 5274.58180 2.1868267 0.0025170
 5279.85357 2.1917357 0.0025306
 5285.12573 2.1977735 0.0026068
 5290.41373 2.2007954 0.0025560
 5295.70135 2.2034087 0.0024931
 5301.00520 2.2070746 0.0024591
 5306.30866 2.2059774 0.0024202
 5311.61251 2.2077553 0.0023786
 5316.91637 2.2054379 0.0023766
 5322.23568 2.1992238 0.0023322
 5327.55538 2.1926916 0.0022831
 5332.89054 2.1843574 0.0023053
 5338.22608 2.1750627 0.0023890
 5343.56124 2.1634924 0.0023526
 5348.91263 2.1530993 0.0023655
 5354.26364 2.1456215 0.0023937
 5359.61504 2.1370878 0.0024148
 5364.96604 2.1290281 0.0024514
 5370.33328 2.1168768 0.0024938
 5375.70014 2.1101992 0.0026137
 5381.08284 2.1056645 0.0024144
 5386.46593 2.0973320 0.0023709
 5391.84863 2.0909047 0.0023790
 5397.24756 2.0870345 0.0024055
 5402.63027 2.0834496 0.0024399
 5408.04466 2.0829711 0.0024804
 5413.44360 2.0829036 0.0025350
 5418.85799 2.0766323 0.0026690
 5424.28824 2.0750260 0.0026140
 5429.70302 2.0741832 0.0025314
 5435.13326 2.0734379 0.0024594
 5440.56351 2.0701506 0.0023965
 5446.00960 2.0638628 0.0023300
 5451.45608 2.0613966 0.0022679
 5456.91801 2.0589681 0.0022177
 5462.36411 2.0540793 0.0021932
 5467.82604 2.0462306 0.0022387
 5473.30383 2.0397978 0.0022980
 5478.76616 2.0345161 0.0022646
 5484.24394 2.0263228 0.0022017
 5489.73757 2.0177443 0.0022019
 5495.23121 2.0117137 0.0022234
 5500.72484 2.0054104 0.0021765
 5506.21847 1.9986047 0.0021696
 5511.72796 1.9960065 0.0021829
 5517.23744 1.9892122 0.0022099
 5522.76315 1.9840719 0.0022433
 5528.28848 1.9836566 0.0022785
 5533.81381 1.9843543 0.0023127
 5539.33914 1.9847282 0.0023408
 5544.88031 1.9863104 0.0023578
 5550.42149 1.9854406 0.0023580
 5555.97851 1.9860286 0.0023469
 5561.53553 1.9885472 0.0023248
 5567.09255 1.9920270 0.0022946
 5572.66504 1.9968247 0.0022494
 5578.23791 2.0021214 0.0022178
 5583.81078 2.0078785 0.0021930
 5589.39950 2.0139239 0.0021831
 5594.98821 2.0203862 0.0022006
 5600.59278 2.0289972 0.0022354
 5606.18150 2.0350747 0.0021744
 5611.78606 2.0421534 0.0021850
 5617.40609 2.0498421 0.0021692
 5623.02650 2.0557866 0.0021671
 5628.64691 2.0623386 0.0021658
 5634.26733 2.0656712 0.0021655
 5639.90359 2.0667591 0.0021655
 5645.53946 2.0669482 0.0021653
 5651.19157 2.0657501 0.0021643
 5656.84367 2.0601201 0.0021506
 5662.51124 2.0538406 0.0021499
 5668.16335 2.0474298 0.0021492
 5673.83130 2.0388083 0.0021481
 5679.51472 2.0285985 0.0021472
 5685.18267 2.0147755 0.0021597
 5690.86648 2.0011723 0.0021454
 5696.56574 1.9895470 0.0021433
 5702.26539 1.9745491 0.0021408
 5707.96504 1.9646343 0.0021372
 5713.68015 1.9510552 0.0021330
 5719.37980 1.9379901 0.0021276
 5725.11075 1.9258121 0.0021654
 5730.82625 1.9142184 0.0021250
 5736.55721 1.9039913 0.0021065
 5742.30440 1.8930904 0.0021074
 5748.03536 1.8828707 0.0021096
 5753.78255 1.8739525 0.0021323
 5759.54520 1.8639942 0.0021574
 5765.30824 1.8574618 0.0021812
 5771.07089 1.8508584 0.0022012
 5776.84978 1.8449976 0.0022117
 5782.61243 1.8383116 0.0022154
 5788.40678 1.8318111 0.0022029
 5794.18567 1.8273520 0.0021828
 5799.98001 1.8218950 0.0021410
 5805.79021 1.8190283 0.0021131
 5811.58494 1.8187000 0.0021020
 5817.41098 1.8182908 0.0020732
 5823.22118 1.8147998 0.0020501
 5829.04761 1.8128473 0.0020569
 5834.87365 1.8116831 0.0021004
 5840.71554 1.8131229 0.0020840
 5846.54158 1.8155613 0.0020649
 5852.39970 1.8147711 0.0020704
 5858.24159 1.8170446 0.0020744
 5864.11518 1.8190839 0.0020660
 5869.97291 1.8253146 0.0020808
 5875.84650 1.8339075 0.0020799
 5881.72047 1.8409899 0.0020663
 5887.59405 1.8490039 0.0020619
 5893.48348 1.8531502 0.0020687
 5899.38876 1.8562011 0.0020641
 5905.27820 1.8616928 0.0020497
 5911.18347 1.8640964 0.0020494
 5917.10460 1.8698573 0.0020651
 5923.00988 1.8709608 0.0020970
 5928.94685 1.8683290 0.0020838
 5934.86798 1.8638422 0.0020561
 5940.80495 1.8605812 0.0020544
 5946.74193 1.8529454 0.0020724
 5952.69475 1.8439646 0.0020971
 5958.64757 1.8322299 0.0021145
 5964.60039 1.8208348 0.0021495
 5970.56906 1.8119591 0.0021575
 5976.53773 1.7988201 0.0021689
 5982.52224 1.7884796 0.0021830
 5988.49091 1.7777331 0.0021563
 5994.49128 1.7698160 0.0021364
 6000.47579 1.7583858 0.0021125
 6006.47577 1.7465876 0.0020836
 6012.49198 1.7381237 0.0020567
 6018.50819 1.7324412 0.0020248
 6024.52440 1.7260675 0.0020221
 6030.54061 1.7181643 0.0020247
 6036.57228 1.7094759 0.0020448
 6042.62019 1.7026633 0.0020496
 6048.65225 1.6944132 0.0020144
 6054.70015 1.6905030 0.0020151
 6060.76352 1.6860321 0.0020176
 6066.82727 1.6814249 0.0020185
 6072.89102 1.6782362 0.0020188
 6078.95439 1.6769640 0.0020195
 6085.03399 1.6766229 0.0020191
 6091.12944 1.6763427 0.0020170
 6097.22450 1.6760865 0.0020142
 6103.31995 1.6763375 0.0020004
 6109.41501 1.6768166 0.0020085
 6115.52630 1.6773252 0.0019961
 6121.63721 1.6814780 0.0019956
 6127.76435 1.6865646 0.0019963
 6133.89111 1.6915109 0.0019986
 6140.03410 1.6938607 0.0020148
 6146.16086 1.6982882 0.0020082
 6152.31969 1.7041037 0.0020120
 6158.46230 1.7103153 0.0020151
 6164.62113 1.7152900 0.0020167
 6170.79543 1.7242477 0.0020163
 6176.97012 1.7292501 0.0020149
 6183.14441 1.7294962 0.0020015
 6189.31871 1.7308418 0.0020105
 6195.50924 1.7314919 0.0019961
 6201.71524 1.7292145 0.0019940
 6207.90538 1.7233442 0.0019911
 6214.12761 1.7177718 0.0019897
 6220.33360 1.7096347 0.0019885
 6226.55544 1.7002378 0.0019868
 6232.77767 1.6919544 0.0019843
 6239.01536 1.6836338 0.0019816
 6245.25304 1.6725681 0.0019796
 6251.50658 1.6616139 0.0019677
 6257.74465 1.6519485 0.0019772
 6264.01404 1.6422772 0.0019655
 6270.26757 1.6319312 0.0019648
 6276.53695 1.6238906 0.0019638
 6282.82218 1.6144394 0.0019630
 6289.10741 1.6065317 0.0019628
 6295.39264 1.5971442 0.0019619
 6301.69411 1.5894508 0.0019509
 6307.99518 1.5851921 0.0019610
 6314.29626 1.5812798 0.0019493
 6320.61319 1.5768092 0.0019592
 6326.93011 1.5728931 0.0019586
 6333.26288 1.5724396 0.0019483
 6339.59565 1.5694056 0.0019606
 6345.92843 1.5714000 0.0019502
 6352.27705 1.5728084 0.0019514
 6358.62567 1.5788528 0.0019517
 6364.99013 1.5796680 0.0019547
 6371.35460 1.5842766 0.0019563
 6377.73453 1.5861624 0.0019596
 6384.09899 1.5902057 0.0019516
 6390.49515 1.5956670 0.0019646
 6396.89132 1.6023052 0.0019684
 6403.28748 1.6068932 0.0019611
 6409.68364 1.6128942 0.0019654
 6416.09526 1.6189559 0.0019683
 6422.50727 1.6244855 0.0019727
 6428.93513 1.6288363 0.0019767
 6435.36298 1.6320735 0.0019796
 6441.79084 1.6329485 0.0019842
 6448.23416 1.6327569 0.0019790
 6454.69371 1.6354644 0.0019940
 6461.13741 1.6360162 0.0019992
 6467.61242 1.6374686 0.0019915
 6474.07198 1.6372555 0.0019970
 6480.54737 1.6363935 0.0020100
 6487.02277 1.6319258 0.0019958
 6493.51325 1.6268610 0.0020315
 6500.00449 1.6183093 0.0020016
 6506.51197 1.6131407 0.0020054
 6513.01868 1.6081187 0.0020144
 6519.52538 1.6055911 0.0020233
 6526.04833 1.6012619 0.0020504
 6532.57127 1.5966867 0.0020886
 6539.10967 1.5873377 0.0020992
 6545.64807 1.5770549 0.0021830
 6552.18647 1.5638222 0.0022197
 6558.74111 1.5494261 0.0021555
 6565.31120 1.5347592 0.0021268
 6571.86584 1.5188541 0.0021419
 6578.45217 1.5050943 0.0021624
 6585.02226 1.4907839 0.0021709
 6591.60859 1.4768699 0.0021895
 6598.19415 1.4598346 0.0022197
 6604.79594 1.4450078 0.0022304
 6611.39851 1.4310228 0.0022121
 6618.01576 1.4133722 0.0022327
 6624.63378 1.4009885 0.0021794
 6631.26727 1.3904918 0.0021175
 6637.88529 1.3837287 0.0020888
 6644.53424 1.3773338 0.0020477
 6651.16773 1.3699876 0.0020158
 6657.81745 1.3642820 0.0020014
 6664.48263 1.3570100 0.0020048
 6671.14781 1.3496861 0.0021202
 6677.81299 1.3420686 0.0020492
 6684.49440 1.3357697 0.0020154
 6691.17505 1.3313049 0.0020087
 6697.87192 1.3238506 0.0020144
 6704.56880 1.3168141 0.0020182
 6711.28191 1.3118947 0.0020207
 6717.99424 1.3052047 0.0020235
 6724.70735 1.3015050 0.0020149
 6731.43592 1.3019334 0.0020170
 6738.16449 1.3003470 0.0020207
 6744.90852 1.2991393 0.0020247
 6751.65333 1.2999412 0.0020288
 6758.39736 1.3018391 0.0020329
 6765.15762 1.3043016 0.0020261
 6771.91789 1.3064101 0.0020313
 6778.69439 1.3081415 0.0020458
 6785.47011 1.3103641 0.0020501
 6792.26207 1.3118124 0.0020546
 6799.05403 1.3132119 0.0020587
 6805.84599 1.3150859 0.0020635
 6812.65341 1.3185149 0.0020670
 6819.47707 1.3216985 0.0020619
 6826.28526 1.3242499 0.0020690
 6833.12438 1.3261011 0.0020782
 6839.94803 1.3306594 0.0020878
 6846.78715 1.3383667 0.0020977
 6853.64250 1.3467793 0.0021087
 6860.49785 1.3522063 0.0021199
 6867.35320 1.3595487 0.0021305
 6874.22401 1.3675644 0.0021404
 6881.09482 1.3748209 0.0021489
 6887.98186 1.3782703 0.0021552
 6894.86890 1.3818991 0.0021589
 6901.75595 1.3854742 0.0021612
 6908.65845 1.3868467 0.0021504
 6915.57719 1.3896534 0.0021470
 6922.47970 1.3925081 0.0021421
 6929.41390 1.3931211 0.0021377
 6936.33264 1.3942211 0.0021337
 6943.26684 1.3949353 0.0021427
 6950.21727 1.3953732 0.0021653
 6957.16770 1.3980997 0.0021416
 6964.13360 1.3973007 0.0021308
 6971.08403 1.3981781 0.0021519
 6978.06539 1.3996928 0.0021959
 6985.04752 1.3985802 0.0022550
 6992.02964 1.3982300 0.0023185
 6999.01100 1.4014688 0.0023797
 7006.02482 1.3982956 0.0024351
 7013.02241 1.3938452 0.0024715
 7020.03624 1.3870521 0.0024867
 7027.06552 1.3824599 0.0024815
 7034.07934 1.3774872 0.0024600
 7041.12409 1.3684815 0.0024254
 7048.15337 1.3573872 0.0023814
 7055.21435 1.3441906 0.0023357
 7062.25987 1.3297931 0.0022993
 7069.33708 1.3142577 0.0022811
 7076.39806 1.2997131 0.0022958
 7083.47450 1.2844278 0.0023237
 7090.56717 1.2733586 0.0022894
 7097.64439 1.2610654 0.0022669
 7104.75252 1.2541615 0.0022501
 7111.84520 1.2477731 0.0022347
 7118.96956 1.2425263 0.0022187
 7126.07847 1.2391320 0.0022009
 7133.20284 1.2345963 0.0021839
 7140.34267 1.2301141 0.0021661
 7147.48327 1.2278440 0.0021435
 7154.63934 1.2248251 0.0021210
 7161.77917 1.2237750 0.0020995
 7168.95146 1.2236416 0.0020791
 7176.12299 1.2212446 0.0020601
 7183.29528 1.2198644 0.0020407
 7190.48227 1.2205265 0.0020196
 7197.67003 1.2232238 0.0019995
 7204.87402 1.2251668 0.0019809
 7212.07724 1.2278147 0.0019637
 7219.28123 1.2341462 0.0019363
 7226.49991 1.2409517 0.0019214
 7233.73560 1.2449248 0.0019074
 7240.97051 1.2509288 0.0018930
 7248.20620 1.2558730 0.0018801
 7255.45657 1.2619787 0.0018687
 7262.70772 1.2711723 0.0018568
 7269.97510 1.2788996 0.0018458
 7277.24171 1.2850959 0.0018360
 7284.52455 1.2929475 0.0018252
 7291.80662 1.2970237 0.0018161
 7299.10570 1.3030947 0.0018064
 7306.40400 1.3070217 0.0017888
 7313.70230 1.3077236 0.0017805
 7321.01684 1.3111198 0.0017696
 7328.34684 1.3148837 0.0017592
 7335.67761 1.3172408 0.0017580
 7343.00761 1.3174899 0.0017567
 7350.35384 1.3174177 0.0017444
 7357.69930 1.3157005 0.0017324
 7365.06099 1.3108917 0.0017248
 7372.42346 1.3054273 0.0017425
 7379.80061 1.3021439 0.0017532
 7387.17854 1.2966872 0.0017657
 7394.57193 1.2913020 0.0017765
 7401.94985 1.2867146 0.0017803
 7409.35870 1.2793067 0.0018332
 7416.76832 1.2687300 0.0017703
 7424.19340 1.2600971 0.0017520
 7431.61849 1.2493669 0.0017442
 7439.04357 1.2405018 0.0017413
 7446.48489 1.2293411 0.0017412
 7453.92620 1.2168236 0.0017302
 7461.38298 1.2069552 0.0017325
 7468.83976 1.1987284 0.0017293
 7476.31199 1.1901786 0.0017322
 7483.80047 1.1824836 0.0017325
 7491.27348 1.1732953 0.0016995
 7498.76195 1.1685197 0.0016727
 7506.26666 1.1627394 0.0016510
 7513.77059 1.1596645 0.0016285
 7521.29076 1.1533217 0.0016123
 7528.81092 1.1481324 0.0015898
 7536.34732 1.1439655 0.0015820
 7543.86749 1.1400418 0.0015835
 7551.41935 1.1367164 0.0016114
 7558.97044 1.1327084 0.0015603
 7566.53853 1.1290988 0.0015630
 7574.10586 1.1252700 0.0015584
 7581.67395 1.1210266 0.0015549
 7589.25751 1.1153032 0.0015444
 7596.84107 1.1096127 0.0015411
 7604.44008 1.1042495 0.0015377
 7612.03910 1.1006649 0.0015412
 7619.65435 1.0961250 0.0015301
 7627.28584 1.0937927 0.0015257
 7634.91655 1.0913199 0.0015213
 7642.54726 1.0914953 0.0015098
 7650.17874 1.0881197 0.0015145
 7657.84115 1.0879831 0.0015119
 7665.48810 1.0892307 0.0015096
 7673.15050 1.0900042 0.0015008
 7680.82914 1.0922457 0.0015074
 7688.50779 1.0947891 0.0015061
 7696.20189 1.0968131 0.0014978
 7703.89599 1.0997844 0.0014965
 7711.60632 1.1035223 0.0015017
 7719.31666 1.1063743 0.0014923
 7727.02699 1.1090060 0.0014905
 7734.76825 1.1090533 0.0014885
 7742.49482 1.1085269 0.0014859
 7750.23608 1.1091998 0.0014833
 7757.99434 1.1097708 0.0014722
 7765.75183 1.1101204 0.0014701
 7773.50932 1.1116768 0.0014731
 7781.29851 1.1111265 0.0014596
 7789.07224 1.1113259 0.0014531
 7796.86142 1.1107823 0.0014587
 7804.66684 1.1116567 0.0014489
 7812.45603 1.1105033 0.0014461
 7820.27691 1.1075083 0.0014400
 7828.09779 1.1075213 0.0014468
 7835.91867 1.1060411 0.0014475
 7843.75578 1.1042798 0.0014458
 7851.60836 1.1049938 0.0014702
 7859.46093 1.1067213 0.0014427
 7867.31351 1.1051648 0.0014313
 7875.18232 1.1027912 0.0014423
 7883.06659 1.0994340 0.0014492
 7890.95086 1.0978761 0.0014622
 7898.83513 1.0970877 0.0014751
 7906.73486 1.0952452 0.0014853
 7914.63537 1.0935515 0.0014862
 7922.55133 1.0926955 0.0014987
 7930.48276 1.0904746 0.0014902
 7938.41496 1.0896980 0.0014676
 7946.34638 1.0888319 0.0014331
 7954.29404 1.0884399 0.0014119
 7962.24170 1.0887704 0.0013967
 7970.20482 1.0896569 0.0013728
 7978.18418 1.0903821 0.0013662
 7986.16353 1.0905249 0.0013539
 7994.15912 1.0938476 0.0013557
 8002.13847 1.0961274 0.0013678
 8010.14952 1.0964760 0.0013419
 8018.15980 1.0963624 0.0013220
 8026.17085 1.0959499 0.0013105
 8034.19813 1.0974464 0.0012913
 8042.24010 1.0992270 0.0012834
 8050.28285 1.1001076 0.0012631
 8058.32559 1.1022891 0.0012529
 8066.38380 1.1025965 0.0012469
 8074.45823 1.1034862 0.0012470
 8082.53267 1.1036717 0.0012530
 8090.60711 1.1049678 0.0012468
 8098.69701 1.1060065 0.0012494
 8106.80315 1.1064055 0.0012567
 8114.90928 1.1068906 0.0012690
 8123.03087 1.1077060 0.0012537
 8131.15247 1.1056395 0.0012610
 8139.27406 1.1039104 0.0012831
 8147.42813 1.1027668 0.0013013
 8155.56518 1.0991250 0.0013093
 8163.71924 1.0956925 0.0013299
 8171.88799 1.0938888 0.0013541
 8180.05752 1.0892358 0.0013854
 8188.24250 1.0870523 0.0014057
 8196.42749 1.0827425 0.0014331
 8204.62870 1.0791495 0.0014344
 8212.82915 1.0783631 0.0014411
 8221.04660 1.0741886 0.0014180
 8229.26328 1.0701441 0.0013910
 8237.49542 1.0664865 0.0013742
 8245.72833 1.0618757 0.0013576
 8253.97671 1.0586349 0.0013022
 8262.24131 1.0540438 0.0012807
 8270.48969 1.0515279 0.0012615
 8278.76976 1.0474030 0.0012417
 8287.04982 1.0400226 0.0012426
 8295.32989 1.0347593 0.0012515
 8303.62542 1.0315706 0.0012751
 8311.93718 1.0279427 0.0012552
 8320.24895 1.0238147 0.0012284
 8328.56071 1.0187448 0.0012250
 8336.88871 1.0128984 0.0012228
 8345.23217 1.0077246 0.0012200
 8353.57562 1.0017093 0.0012155
 8361.93454 0.9970930 0.0012059
 8370.29424 0.9928827 0.0011968
 8378.66862 0.9869794 0.0011837
 8387.04377 0.9821210 0.0011756
 8395.43515 0.9776671 0.0011834
 8403.82577 0.9737809 0.0011805
 8412.23262 0.9693390 0.0011481
 8420.63946 0.9635644 0.0011354
 8429.06177 0.9593099 0.0011224
 8437.50031 0.9527768 0.0011086
 8445.93886 0.9488168 0.0010983
 8454.37740 0.9453247 0.0010882
 8462.83140 0.9418297 0.0010990
 8471.30164 0.9369147 0.0010813
 8479.77188 0.9326153 0.0010647
 8488.25757 0.9271419 0.0010567
 8496.72781 0.9229403 0.0010548
 8505.22974 0.9195642 0.0010484
 8513.74714 0.9150409 0.0010475
 8522.24907 0.9119709 0.0010379
 8530.78192 0.9085868 0.0010284
 8539.30009 0.9057174 0.0010317
 8547.84918 0.9038068 0.0010355
 8556.39826 0.8995341 0.0010487
 8564.94735 0.8959488 0.0010459
 8573.51267 0.8910213 0.0010442
 8582.09345 0.8868780 0.0010513
 8590.67424 0.8833029 0.0010594
 8599.27125 0.8787982 0.0010718
 8607.86750 0.8765849 0.0010837
 8616.48075 0.8727715 0.0010963
 8625.09322 0.8687137 0.0011093
 8633.72116 0.8639364 0.0011085
 8642.34987 0.8598746 0.0011122
 8650.99404 0.8547452 0.0011182
 8659.63822 0.8494962 0.0011191
 8668.29862 0.8447725 0.0011046
 8676.97449 0.8366863 0.0010956
 8685.65036 0.8289898 0.0010790
 8694.34168 0.8209925 0.0010630
 8703.03378 0.8142168 0.0010447
 8711.74135 0.8067656 0.0010295
 8720.44891 0.7983720 0.0010263
 8729.17193 0.7918727 0.0010150
 8737.89573 0.7868090 0.0010069
 8746.63498 0.7813042 0.0009963
 8755.37424 0.7761971 0.0009839
 8764.12896 0.7725768 0.0009750
 8772.89991 0.7698426 0.0009660
 8781.67086 0.7678797 0.0009604
 8790.45727 0.7667809 0.0009524
 8799.24445 0.7665023 0.0009432
 8808.04710 0.7669300 0.0009373
 8816.86521 0.7670192 0.0009309
 8825.66785 0.7670953 0.0009286
 8834.50219 0.7681178 0.0009225
 8843.33576 0.7687571 0.0009194
 8852.18634 0.7704284 0.0009193
 8861.03614 0.7723618 0.0009191
 8869.88594 0.7749310 0.0009163
 8878.76821 0.7767711 0.0009139
 8887.64970 0.7781339 0.0009122
 8896.53120 0.7790568 0.0009105
 8905.42893 0.7810339 0.0009038
 8914.32666 0.7821833 0.0008983
 8923.23985 0.7822422 0.0008947
 8932.16928 0.7827522 0.0008925
 8941.09793 0.7826592 0.0008913
 8950.04359 0.7835839 0.0008908
 8959.00393 0.7849095 0.0008895
 8967.94959 0.7848842 0.0008891
 8976.92617 0.7851257 0.0008907
 8985.90275 0.7862936 0.0008915
 8994.87933 0.7859128 0.0008905
 9003.88761 0.7866170 0.0008930
 9012.88042 0.7859597 0.0008962
 9021.90416 0.7845399 0.0009050
 9030.92867 0.7815020 0.0009031
 9039.95318 0.7789247 0.0008964
 9048.99315 0.7754517 0.0008935
 9058.04858 0.7713657 0.0008988
 9067.10479 0.7685402 0.0009134
 9076.17645 0.7653975 0.0009185
 9085.24811 0.7620794 0.0009251
 9094.33524 0.7580571 0.0009384
 9103.42314 0.7549489 0.0009549
 9112.52650 0.7512358 0.0009747
 9121.64532 0.7501441 0.0009874
 9130.76491 0.7502841 0.0009969
 9139.89997 0.7497593 0.0009984
 9149.03502 0.7493764 0.0010044
 9158.18554 0.7498328 0.0009939
 9167.33683 0.7489221 0.0009921
 9176.51904 0.7475070 0.0009948
 9185.68579 0.7449018 0.0010002
 9194.88423 0.7427612 0.0009968
 9204.06644 0.7387063 0.0009913
 9213.28112 0.7353053 0.0009851
 9222.49502 0.7320389 0.0009825
 9231.70893 0.7288024 0.0009707
 9240.93907 0.7269093 0.0009719
 9250.18544 0.7239413 0.0009591
 9259.43104 0.7216550 0.0009483
 9268.69287 0.7186788 0.0009432
 9277.97017 0.7158309 0.0009246
 9287.24746 0.7122425 0.0009137
 9296.52476 0.7104751 0.0009055
 9305.83452 0.7090986 0.0008955
 9315.12727 0.7056322 0.0008855
 9324.45250 0.7030319 0.0008840
 9333.77772 0.7004120 0.0008668
 9343.10294 0.6980221 0.0008598
 9352.45909 0.6946660 0.0008598
 9361.80055 0.6917865 0.0008627
 9371.17293 0.6884652 0.0008607
 9380.54530 0.6840621 0.0008680
 9389.91768 0.6822821 0.0008675
 9399.30630 0.6808649 0.0008668
 9408.71037 0.6796545 0.0008602
 9418.11444 0.6792380 0.0008615
 9427.53398 0.6776664 0.0008662
 9436.97052 0.6768346 0.0008685
 9446.40629 0.6761178 0.0008634
 9455.84206 0.6758646 0.0008551
 9465.30952 0.6746733 0.0008673
 9474.77698 0.6743242 0.0008923
 9484.24445 0.6739271 0.0009005
 9493.72737 0.6725399 0.0008762
 9503.22653 0.6710370 0.0008863
 9512.72569 0.6684708 0.0008926
 9522.24108 0.6658974 0.0009123
 9531.77193 0.6623355 0.0009528
 9541.30278 0.6580569 0.0009885
 9550.84910 0.6541216 0.0010388
 9560.39618 0.6503464 0.0010793
 9569.95873 0.6468965 0.0011305
 9579.52051 0.6423983 0.0012064
 9589.09929 0.6386403 0.0012287
 9598.69353 0.6354128 0.0012272
 9608.28777 0.6308671 0.0012191
 9617.89747 0.6280466 0.0011922
 9627.52341 0.6252894 0.0010653
 9637.14935 0.6239220 0.0010200
 9646.79075 0.6226453 0.0009947
 9656.43215 0.6193910 0.0010182
 9666.08978 0.6157106 0.0009625
 9675.74741 0.6124136 0.0009337
 9685.43674 0.6097264 0.0009472
 9695.12529 0.6075385 0.0009671
 9704.81462 0.6063667 0.0009969
 9714.51940 0.6037301 0.0010411
 9724.24043 0.6038837 0.0010350
 9733.96145 0.6038411 0.0010429
 9743.69793 0.6026971 0.0010299
 9753.43441 0.6040161 0.0010145
 9763.18713 0.6055361 0.0009997
 9772.95530 0.6078135 0.0009850
 9782.72348 0.6098580 0.0009773
 9792.50789 0.6126374 0.0009684
 9802.30776 0.6149272 0.0009540
 9812.10764 0.6155548 0.0009330
 9821.92374 0.6181152 0.0009357
 9831.73908 0.6183806 0.0009484
 9841.57064 0.6175626 0.0009598
 9851.41844 0.6168613 0.0009608
 9861.26624 0.6161519 0.0009699
 9871.12950 0.6155291 0.0009753
 9881.00823 0.6149826 0.0009775
 9890.87149 0.6134038 0.0009682
 9900.76644 0.6118256 0.0009824
 9910.67763 0.6087119 0.0009702
 9920.58805 0.6048751 0.0009807
 9930.51470 0.6003879 0.0009737
 9940.44135 0.5968050 0.0009593
 9950.38347 0.5915977 0.0009343
 9960.32635 0.5880584 0.0009412
 9970.28470 0.5829430 0.0009236
 9980.25850 0.5776938 0.0009128
 9990.24854 0.5725514 0.0009087
 10000.23858 0.5675070 0.0009087
 10010.22863 0.5643551 0.0008912
 10020.25036 0.5599991 0.0008808
 10030.27210 0.5565843 0.0008729
 10040.29306 0.5530896 0.0008741
 10050.33103 0.5527135 0.0008805
 10060.38446 0.5526136 0.0008819
 10070.45335 0.5539685 0.0008606
 10080.52224 0.5561817 0.0008420
 10090.59113 0.5593975 0.0008368
 10100.69249 0.5607403 0.0008358
 10110.79308 0.5629485 0.0008356
 10120.90989 0.5661418 0.0008391
 10131.02594 0.5697554 0.0008362
 10141.15822 0.5731206 0.0008415
 10151.30674 0.5767440 0.0008470
 10161.43902 0.5796655 0.0008280
 10171.60377 0.5825922 0.0008196
 10181.78320 0.5864285 0.0008144
 10191.96341 0.5894799 0.0008074
 10202.15908 0.5926142 0.0007914
 10212.35475 0.5949806 0.0007790
 10222.58212 0.5972409 0.0007689
 10232.79402 0.6000566 0.0007650
 10243.02139 0.6035928 0.0007653
 10253.28045 0.6053814 0.0007711
 10263.52327 0.6063382 0.0007657
 10273.78233 0.6083278 0.0007590
 10284.05762 0.6098045 0.0007588
 10294.34838 0.6103202 0.0007568
 10304.63913 0.6104460 0.0007500
 10314.94535 0.6109775 0.0007549
 10325.26780 0.6104153 0.0007600
 10335.59025 0.6098546 0.0007597
 10345.92893 0.6081877 0.0007502
 10356.26684 0.6058771 0.0007528
 10366.62098 0.6033903 0.0007584
 10376.99136 0.6011369 0.0007725
 10387.37643 0.5980548 0.0007933
 10397.76227 0.5959120 0.0008190
 10408.16434 0.5931854 0.0008401
 10418.56564 0.5903848 0.0008455
 10428.98317 0.5882828 0.0008518
 10439.41617 0.5855165 0.0008647
 10449.86540 0.5822681 0.0008757
 10460.31463 0.5803483 0.0008790
 10470.76385 0.5804191 0.0008791
 10481.24400 0.5792994 0.0008713
 10491.72493 0.5784438 0.0008636
 10502.22131 0.5770926 0.0008688
 10512.71847 0.5767362 0.0008752
 10523.23031 0.5757520 0.0008845
 10533.75916 0.5744054 0.0008942
 10544.28724 0.5720101 0.0008985
 10554.83078 0.5688114 0.0008849
 10565.39133 0.5671862 0.0008692
 10575.95110 0.5640007 0.0008651
 10586.52634 0.5622978 0.0008679
 10597.11781 0.5600648 0.0008955
 10607.71005 0.5579262 0.0008670
 10618.31698 0.5545325 0.0008473
 10628.94014 0.5501965 0.0008350
 10639.56330 0.5477158 0.0008271
 10650.21816 0.5449425 0.0008210
 10660.85756 0.5425338 0.0008013
 10671.52788 0.5396202 0.0007886
 10682.19897 0.5368339 0.0007680
 10692.88552 0.5339441 0.0007643
 10703.57207 0.5314040 0.0007631
 10714.27409 0.5292748 0.0007421
 10724.99234 0.5269089 0.0007253
 10735.71058 0.5251753 0.0007303
 10746.46053 0.5230554 0.0007326
 10757.19501 0.5213591 0.0007324
 10767.96041 0.5205479 0.0007216
 10778.72659 0.5191023 0.0007306
 10789.50745 0.5187744 0.0007521
 10800.30532 0.5176829 0.0007656
 10811.10242 0.5168250 0.0007769
 10821.91575 0.5152781 0.0007975
 10832.72908 0.5139053 0.0008248
 10843.55788 0.5145182 0.0008593
 10854.40290 0.5134466 0.0008827
 10865.26339 0.5123354 0.0008920
 10876.12465 0.5119798 0.0008928
 10887.00060 0.5108300 0.0008833
 10897.89355 0.5077586 0.0008695
 10908.78574 0.5064821 0.0008572
 10919.70961 0.5047916 0.0008402
 10930.61803 0.5020649 0.0008048
 10941.55737 0.4993193 0.0007672
 10952.49748 0.4955448 0.0007385
 10963.43759 0.4927829 0.0007186
 10974.40862 0.4906352 0.0007215
 10985.38043 0.4882340 0.0007393
 10996.36770 0.4859547 0.0007747
 11007.37120 0.4843411 0.0007994
 11018.37392 0.4828886 0.0008018
 11029.39288 0.4819144 0.0008107
 11040.42808 0.4817435 0.0008182
 11051.46328 0.4821647 0.0008321
 11062.51393 0.4827131 0.0008323
 11073.58005 0.4833241 0.0008471
 11084.66240 0.4840717 0.0008324
 11095.74475 0.4842680 0.0008325
 11106.82710 0.4842297 0.0008239
 11117.94115 0.4862981 0.0008400
 11129.07065 0.4880189 0.0008593
 11140.18470 0.4889061 0.0008675
 11151.33044 0.4904210 0.0008875
 11162.49242 0.4919739 0.0008801
 11173.63816 0.4941924 0.0008565
 11184.81559 0.4957428 0.0008533
 11196.00849 0.4970517 0.0008675
 11207.20138 0.4983515 0.0008942
 11218.41051 0.5011864 0.0009219
 11229.63510 0.5031594 0.0009051
 11240.86047 0.5050126 0.0009019
 11252.10129 0.5071146 0.0008875
 11263.35758 0.5098481 0.0008980
 11274.61387 0.5123881 0.0008863
 11285.88638 0.5144792 0.0008887
 11297.17437 0.5161650 0.0008628
 11308.47858 0.5169009 0.0008551
 11319.78279 0.5161911 0.0008379
 11331.10247 0.5176370 0.0008315
 11342.43761 0.5176910 0.0008046
 11353.77352 0.5186633 0.0007865
 11365.14112 0.5178460 0.0007864
 11376.50795 0.5174506 0.0007642
 11387.87555 0.5158855 0.0007426
 11399.25862 0.5138847 0.0007301
 11410.67338 0.5106400 0.0007265
 11422.07268 0.5080636 0.0007217
 11433.50290 0.5060127 0.0007178
 11444.93389 0.5029235 0.0006949
 11456.38035 0.4999646 0.0006932
 11467.84303 0.4971235 0.0006881
 11479.30495 0.4951827 0.0006946
 11490.78310 0.4927007 0.0006974
 11502.27748 0.4911126 0.0006966
 11513.78655 0.4890030 0.0006916
 11525.29640 0.4851078 0.0006939
 11536.82248 0.4837447 0.0006902
 11548.36401 0.4835079 0.0006915
 11559.90555 0.4821790 0.0006876
 11571.46255 0.4812618 0.0006787
 11583.03579 0.4795024 0.0006732
 11594.62448 0.4774361 0.0006744
 11606.21395 0.4749202 0.0006798
 11617.81888 0.4724015 0.0006824
 11629.43927 0.4686177 0.0006832
 11641.07589 0.4654274 0.0006943
 11652.71174 0.4621909 0.0007151
 11664.36460 0.4595032 0.0007268
 11676.03291 0.4560837 0.0007645
 11687.71669 0.4518608 0.0008148
 11699.40047 0.4480963 0.0008662
 11711.10048 0.4434229 0.0009416
 11722.79972 0.4401952 0.0010126
 11734.53143 0.4349183 0.0010758
 11746.26314 0.4295065 0.0011537
 11758.01031 0.4283042 0.0012143
 11769.77371 0.4236177 0.0012373
 11781.53634 0.4187095 0.0012184
 11793.31520 0.4139394 0.0011515
 11805.11030 0.4089746 0.0011434
 11816.92086 0.4047445 0.0011444
 11828.74765 0.4006108 0.0011908
 11840.57367 0.3973210 0.0012149
 11852.41592 0.3956220 0.0012135
 11864.25817 0.3933239 0.0012616
 11876.13212 0.3931424 0.0012486
 11888.00607 0.3956654 0.0012813
 11899.89625 0.3947068 0.0012752
 11911.80189 0.3958812 0.0012725
 11923.70753 0.3960765 0.0012309
 11935.62864 0.3958274 0.0011641
 11947.56597 0.3968939 0.0011295
 11959.51877 0.3964380 0.0011014
 11971.47234 0.3977592 0.0011004
 11983.44138 0.3979508 0.0011035
 11995.42587 0.3995252 0.0011037
 12007.42659 0.4018102 0.0010714
 12019.42732 0.4037992 0.0010408
 12031.45974 0.4065067 0.0010371
 12043.49139 0.4100816 0.0010293
 12055.54005 0.4125291 0.0010009
 12067.58793 0.4148973 0.0009921
 12079.65204 0.4185047 0.0009856
 12091.73162 0.4215479 0.0009667
 12103.82743 0.4237386 0.0009806
 12115.93870 0.4263089 0.0009686
 12128.04998 0.4296155 0.0009850
 12140.17748 0.4323159 0.0010081
 12152.32045 0.4366789 0.0010402
 12164.46342 0.4403740 0.0010571
 12176.63808 0.4432311 0.0010778
 12188.81274 0.4456221 0.0010893
 12201.00363 0.4479218 0.0010885
 12213.20999 0.4481769 0.0010803
 12225.41635 0.4504215 0.0010774
 12237.65440 0.4506633 0.0010695
 12249.87699 0.4515993 0.0010701
 12262.13050 0.4518214 0.0010544
 12274.40024 0.4532951 0.0010538
 12286.66999 0.4522158 0.0010395
 12298.95597 0.4527386 0.0010415
 12311.25741 0.4519281 0.0010470
 12323.57431 0.4519181 0.0010545
 12335.89121 0.4508429 0.0010603
 12348.22435 0.4498861 0.0010797
 12360.57372 0.4486356 0.0011050
 12372.93855 0.4464249 0.0011216
 12385.30338 0.4434017 0.0011403
 12397.69913 0.4406225 0.0011545
 12410.09565 0.4382326 0.0011675
 12422.50841 0.4357226 0.0012021
 12434.93586 0.4335625 0.0012122
 12447.36408 0.4307074 0.0012237
 12459.80776 0.4280250 0.0012471
 12472.28391 0.4257458 0.0012765
 12484.74305 0.4231806 0.0013230
 12497.23466 0.4192568 0.0013967
 12509.72627 0.4157190 0.0014045
 12522.24957 0.4119634 0.0014094
 12534.77210 0.4074876 0.0014226
 12547.29541 0.4043632 0.0014365
 12559.85041 0.4001274 0.0014520
 12572.40463 0.3959547 0.0014797
 12584.97509 0.3937325 0.0015169
 12597.56179 0.3904695 0.0015259
 12610.16394 0.3872430 0.0015633
 12622.76609 0.3860630 0.0015952
 12635.39994 0.3822080 0.0015919
 12648.03379 0.3810992 0.0016212
 12660.68388 0.3791433 0.0016522
 12673.34942 0.3761582 0.0016834
 12686.01496 0.3750475 0.0017362
 12698.71220 0.3717405 0.0017569
 12711.40944 0.3685300 0.0018233
 12724.10668 0.3684506 0.0019385
 12736.83484 0.3651162 0.0019931
 12749.58001 0.3627308 0.0020393
 12762.32440 0.3594974 0.0020742
 12775.10126 0.3562167 0.0021383
 12787.86112 0.3538544 0.0022164
 12800.65344 0.3519874 0.0023446
 12813.46200 0.3485228 0.0025433
 12826.26978 0.3472618 0.0027508
 12839.09380 0.3460850 0.0029672
 12851.93328 0.3435068 0.0032111
 12864.78899 0.3419977 0.0035137
 12877.66017 0.3409572 0.0039907
 12890.53134 0.3401060 0.0045183
 12903.41875 0.3406095 0.0054183
 12916.33785 0.3420182 0.0063579
 12929.24072 0.3420600 0.0075847
 12942.17528 0.3390112 0.0091497
