# SOURCE  = 'Quimby et al. 2018' /                                                
# OBJECT  = 'PTF09cnd'           /                                                
# Z       =             0.258500 / wavelengths in OBSERVER FRAME                 
# NORM    =          5.81690E-17 / fluxes divided by norm                         
# CLIPPED =                    1 / galaxy emission lines removed                  
# SMOOTHED=                    1 / spectrum has been smoothed                     
# COLUMN01= 'Wavelength (Angstrom)' /                                             
# COLUMN02= 'Flux Density (erg/s/cm2/A)' /                                        
# COLUMN03= 'Flux Density Uncertainty (erg/s/cm2/A)' /                            
# END                                                                             
# 
# 
# 
# 
# 
# 
# 
# 
# 
# 
# Converted to Observer Frame using z=0.258
 4039.08945 0.6396337 0.0894652
 4043.12667 0.6468444 0.0861560
 4047.17973 0.6944245 0.0835728
 4051.21657 0.7180914 0.0810576
 4055.26963 0.7444614 0.0782306
 4059.32270 0.7519839 0.0760515
 4063.39161 0.7510085 0.0735421
 4067.44429 0.7734931 0.0715133
 4071.51321 0.7752301 0.0692442
 4075.58212 0.7745787 0.0674626
 4079.66688 0.7761381 0.0656729
 4083.75126 0.7743950 0.0635705
 4087.82017 0.7627964 0.0618972
 4091.92078 0.7466953 0.0599302
 4096.00516 0.7372027 0.0583484
 4100.10577 0.7181448 0.0565485
 4104.20638 0.6952644 0.0551283
 4108.30660 0.6648567 0.0537093
 4112.42305 0.6360729 0.0520207
 4116.52328 0.6015186 0.0506715
 4120.63973 0.5952489 0.0490599
 4124.77204 0.5811517 0.0477669
 4128.88811 0.5646026 0.0462748
 4133.02041 0.5411496 0.0450980
 4137.15233 0.5273402 0.0437023
 4141.30048 0.5096112 0.0426100
 4145.43240 0.4923580 0.0413047
 4149.58055 0.4737028 0.0402660
 4153.72831 0.4488882 0.0392750
 4157.87646 0.4317361 0.0381029
 4162.04008 0.4182360 0.0371696
 4166.20407 0.4102818 0.0360902
 4170.36769 0.3991825 0.0352876
 4174.54753 0.3819073 0.0343502
 4178.71114 0.3658907 0.0335758
 4182.89099 0.3542484 0.0326410
 4187.07045 0.3438964 0.0319141
 4191.26614 0.3323652 0.0310869
 4195.46145 0.3182629 0.0304703
 4199.65676 0.3129612 0.0297503
 4203.85245 0.3081849 0.0292459
 4208.06360 0.2997292 0.0286247
 4212.25930 0.3005344 0.0281490
 4216.47045 0.2933267 0.0275599
 4220.69745 0.2837954 0.0271184
 4224.90899 0.2901638 0.0265575
 4229.13600 0.2967203 0.0261415
 4233.36300 0.2973564 0.0256154
 4237.60623 0.3027768 0.0252135
 4241.83323 0.3144211 0.0246798
 4246.07608 0.3266243 0.0242955
 4250.33478 0.3542723 0.0237590
 4254.57802 0.3766406 0.0233411
 4258.83671 0.3940074 0.0228424
 4263.09541 0.4238847 0.0224589
 4267.35410 0.4510140 0.0219713
 4271.62904 0.4761224 0.0216019
 4275.90358 0.4995675 0.0211582
 4280.17812 0.5227143 0.0208679
 4284.45267 0.5526882 0.0204720
 4288.74306 0.5769429 0.0200832
 4293.01799 0.5971503 0.0197989
 4297.32423 0.6166630 0.0194452
 4301.61462 0.6413935 0.0191900
 4305.92086 0.6688071 0.0188810
 4310.22710 0.7003518 0.0186404
 4314.53333 0.7208095 0.0183397
 4318.85542 0.7454753 0.0181501
 4323.16166 0.7686026 0.0178724
 4327.48374 0.7904711 0.0176604
 4331.82168 0.8127517 0.0174061
 4336.14415 0.8307577 0.0171322
 4340.48208 0.8462953 0.0169517
 4344.82002 0.8625854 0.0167202
 4349.17380 0.8864403 0.0165573
 4353.52758 0.8975254 0.0163807
 4357.88136 0.9208851 0.0162502
 4362.23514 0.9413278 0.0160446
 4366.58892 0.9695848 0.0158343
 4370.95855 0.9893914 0.0156870
 4375.32818 1.0072500 0.0155072
 4379.71327 1.0234873 0.0153556
 4384.08289 1.0455278 0.0151353
 4388.46837 1.0666099 0.0149896
 4392.86969 1.0825154 0.0148071
 4397.25517 1.0838094 0.0146197
 4401.65649 1.0948538 0.0145037
 4406.05781 1.0923496 0.0143014
 4410.45914 1.0969154 0.0141796
 4414.87631 1.0985010 0.0139873
 4419.29309 1.0947253 0.0138101
 4423.71026 1.0957168 0.0137079
 4428.12743 1.0845824 0.0136187
 4432.56045 1.0752226 0.0135252
 4436.99347 1.0643414 0.0134888
 4441.42648 1.0525500 0.0134164
 4445.87496 1.0404470 0.0134411
 4450.32383 1.0292716 0.0133838
 4454.77269 1.0112884 0.0133262
 4459.22156 1.0034513 0.0133073
 4463.68588 1.0043890 0.0132748
 4468.15060 1.0093768 0.0131909
 4472.61531 1.0072260 0.0131393
 4477.07964 1.0129997 0.0130425
 4481.56020 1.0090253 0.0128932
 4486.04076 1.0193194 0.0127890
 4490.53678 1.0409992 0.0126407
 4495.01734 1.0557171 0.0124759
 4499.51374 1.0617553 0.0123836
 4504.02561 1.0623440 0.0122719
 4508.52202 1.0792124 0.0121881
 4513.03427 1.0926914 0.0120443
 4517.54614 1.1123593 0.0119599
 4522.05840 1.1243294 0.0118614
 4526.58611 1.1340402 0.0118122
 4531.11421 1.1410618 0.0117557
 4535.64232 1.1490449 0.0116695
 4540.18588 1.1567670 0.0116409
 4544.71398 1.1691365 0.0116086
 4549.25754 1.1844393 0.0115357
 4553.81734 1.2033507 0.0115454
 4558.36090 1.2190111 0.0114587
 4562.92070 1.2395377 0.0113629
 4567.49596 1.2561870 0.0113429
 4572.05575 1.2706952 0.0112271
 4576.63101 1.2867351 0.0111354
 4581.20627 1.3115228 0.0110048
 4585.78191 1.3333204 0.0109237
 4590.37302 1.3487641 0.0108280
 4594.96451 1.3595387 0.0106992
 4599.55562 1.3720331 0.0106490
 4604.16257 1.3904985 0.0105059
 4608.76991 1.3998318 0.0104232
 4613.37686 1.4056005 0.0102926
 4617.98381 1.4139129 0.0101951
 4622.60700 1.4173179 0.0100914
 4627.22980 1.4207832 0.0099794
 4631.85260 1.4294629 0.0098832
 4636.49163 1.4406006 0.0098015
 4641.13028 1.4520665 0.0097347
 4645.76893 1.4561093 0.0096315
 4650.40796 1.4554193 0.0095750
 4655.06246 1.4620516 0.0094998
 4659.71695 1.4624091 0.0094481
 4664.37144 1.4724692 0.0093456
 4669.04179 1.4754308 0.0092376
 4673.71252 1.4793230 0.0090965
 4678.38286 1.4816736 0.0090101
 4683.06905 1.4775625 0.0089298
 4687.73939 1.4646409 0.0088567
 4692.42558 1.4530011 0.0087973
 4697.12800 1.4310683 0.0087165
 4701.83004 1.4178957 0.0086850
 4706.53208 1.4011924 0.0086097
 4711.23411 1.3744344 0.0085208
 4715.95200 1.3527282 0.0084256
 4720.65403 1.3326626 0.0082796
 4725.38776 1.3077711 0.0081811
 4730.10565 1.2819482 0.0080829
 4734.83938 1.2534316 0.0079948
 4739.57311 1.2339659 0.0079072
 4744.30684 1.2196125 0.0078405
 4749.05642 1.2032980 0.0077823
 4753.80600 1.1986353 0.0077226
 4758.55558 1.1876709 0.0076581
 4763.32101 1.1772850 0.0075616
 4768.08643 1.1760391 0.0075301
 4772.85186 1.1679744 0.0074855
 4777.61729 1.1628215 0.0073949
 4782.39856 1.1652106 0.0073362
 4787.17983 1.1674396 0.0072900
 4791.97695 1.1732916 0.0072555
 4796.75823 1.1724094 0.0072121
 4801.55535 1.1821002 0.0071746
 4806.36832 1.1952720 0.0071393
 4811.16505 1.2080644 0.0070733
 4815.97802 1.2124534 0.0070610
 4820.79099 1.2236264 0.0070085
 4825.61981 1.2372503 0.0069456
 4830.44862 1.2535619 0.0068443
 4835.27705 1.2681122 0.0067673
 4840.10587 1.2792263 0.0067120
 4844.95053 1.2904468 0.0066045
 4849.79519 1.2983387 0.0065186
 4854.63986 1.2997017 0.0064407
 4859.49998 1.3078724 0.0063607
 4864.36049 1.3104739 0.0063119
 4869.22100 1.3059902 0.0062352
 4874.09697 1.3079195 0.0061860
 4878.97333 1.3073399 0.0061558
 4883.84969 1.3083862 0.0060811
 4888.72566 1.3105152 0.0060482
 4893.61787 1.3110868 0.0060480
 4898.51007 1.3156457 0.0060019
 4903.41774 1.3170154 0.0059797
 4908.30995 1.3138727 0.0059348
 4913.21800 1.3133390 0.0059232
 4918.14151 1.3141576 0.0058747
 4923.06541 1.3166364 0.0057891
 4927.97308 1.3183576 0.0057440
 4932.91283 1.3153768 0.0056544
 4937.83634 1.3200186 0.0055923
 4942.77609 1.3261467 0.0055478
 4947.71545 1.3374141 0.0054683
 4952.67104 1.3437533 0.0054290
 4957.62625 1.3465666 0.0053925
 4962.58185 1.3513886 0.0053654
 4967.53706 1.3585694 0.0053114
 4972.50850 1.3635932 0.0052974
 4977.47956 1.3677231 0.0052369
 4982.46685 1.3720455 0.0053189
 4987.43790 1.3719106 0.0052094
 4992.42480 1.3797174 0.0051665
 4997.42794 1.3822681 0.0051622
 5002.41484 1.3848312 0.0051861
 5007.41798 1.3898187 0.0052039
 5012.43658 1.3940341 0.0052666
 5017.43933 1.3998715 0.0052820
 5022.45832 1.4068813 0.0053373
 5027.49276 1.4149998 0.0053300
 5032.51136 1.4299308 0.0053528
 5037.54580 1.4414760 0.0053073
 5042.58064 1.4564500 0.0052665
 5047.63093 1.4581120 0.0052119
 5052.68122 1.4630805 0.0051515
 5057.73152 1.4642290 0.0050865
 5062.78219 1.4590852 0.0050364
 5067.84834 1.4539129 0.0049945
 5072.91448 1.4523709 0.0049736
 5077.99646 1.4431509 0.0050098
 5083.06260 1.4375211 0.0049263
 5088.14498 1.4296429 0.0048910
 5093.24281 1.4195524 0.0048746
 5098.32480 1.4127676 0.0048558
 5103.43848 1.4019425 0.0048341
 5108.53632 1.3945754 0.0047953
 5113.65000 1.3864101 0.0047889
 5118.76368 1.3861815 0.0047469
 5123.87737 1.3826483 0.0047382
 5129.00690 1.3822576 0.0046938
 5134.13642 1.3813903 0.0046663
 5139.26595 1.3782119 0.0046551
 5144.41133 1.3759857 0.0046024
 5149.55671 1.3734069 0.0045648
 5154.70209 1.3696523 0.0045368
 5159.84746 1.3681211 0.0045093
 5165.00869 1.3686672 0.0044889
 5170.18576 1.3698692 0.0044658
 5175.34699 1.3673635 0.0044359
 5180.52406 1.3680089 0.0044428
 5185.70113 1.3688940 0.0044144
 5190.89405 1.3680851 0.0044030
 5196.08697 1.3691082 0.0043878
 5201.27989 1.3724982 0.0043733
 5206.48865 1.3772917 0.0043580
 5211.68119 1.3825114 0.0043303
 5216.90580 1.3912868 0.0043366
 5222.11457 1.3953478 0.0043278
 5227.33918 1.3990543 0.0043042
 5232.56380 1.4011146 0.0042942
 5237.80387 1.4038123 0.0042994
 5243.04433 1.4105268 0.0042700
 5248.28479 1.4134983 0.0042482
 5253.52526 1.4199866 0.0042082
 5258.78118 1.4245894 0.0041931
 5264.03749 1.4266146 0.0041588
 5269.30964 1.4260212 0.0041122
 5274.58180 1.4307059 0.0040811
 5279.85357 1.4345989 0.0040714
 5285.12573 1.4393030 0.0040325
 5290.41373 1.4481988 0.0040146
 5295.70135 1.4516585 0.0039973
 5301.00520 1.4560251 0.0039652
 5306.30866 1.4579234 0.0039643
 5311.61251 1.4623655 0.0039483
 5316.91637 1.4630634 0.0039363
 5322.23568 1.4601496 0.0039113
 5327.55538 1.4564511 0.0039026
 5332.89054 1.4550991 0.0038909
 5338.22608 1.4537472 0.0038799
 5343.56124 1.4505510 0.0038717
 5348.91263 1.4463704 0.0038631
 5354.26364 1.4410655 0.0038536
 5359.61504 1.4310795 0.0038392
 5364.96604 1.4229091 0.0038117
 5370.33328 1.4193670 0.0037955
 5375.70014 1.4189730 0.0037792
 5381.08284 1.4180102 0.0037592
 5386.46593 1.4184120 0.0037388
 5391.84863 1.4189398 0.0037206
 5397.24756 1.4196638 0.0037052
 5402.63027 1.4207424 0.0036921
 5408.04466 1.4225769 0.0036814
 5413.44360 1.4241459 0.0036605
 5418.85799 1.4220213 0.0036574
 5424.28824 1.4248874 0.0036517
 5429.70302 1.4268596 0.0036522
 5435.13326 1.4288270 0.0036463
 5440.56351 1.4275880 0.0036385
 5446.00960 1.4308417 0.0036197
 5451.45608 1.4324483 0.0036183
 5456.91801 1.4313945 0.0036171
 5462.36411 1.4318095 0.0036124
 5467.82604 1.4387448 0.0036108
 5473.30383 1.4450186 0.0036116
 5478.76616 1.4486628 0.0036125
 5484.24394 1.4535307 0.0036117
 5489.73757 1.4575349 0.0036085
 5495.23121 1.4609388 0.0035903
 5500.72484 1.4662455 0.0035830
 5506.21847 1.4659306 0.0035777
 5511.72796 1.4708517 0.0035730
 5517.23744 1.4745977 0.0035720
 5522.76315 1.4760171 0.0035753
 5528.28848 1.4807529 0.0035809
 5533.81381 1.4823900 0.0035810
 5539.33914 1.4840348 0.0035894
 5544.88031 1.4835041 0.0035944
 5550.42149 1.4869469 0.0035980
 5555.97851 1.4893568 0.0036010
 5561.53553 1.4925386 0.0035996
 5567.09255 1.4961845 0.0036407
 5572.66504 1.4999338 0.0035881
 5578.23791 1.5043637 0.0035684
 5583.81078 1.5087494 0.0035533
 5589.39950 1.5143318 0.0035640
 5594.98821 1.5183975 0.0035792
 5600.59278 1.5229419 0.0035940
 5606.18150 1.5272129 0.0036059
 5611.78606 1.5340919 0.0036119
 5617.40609 1.5429933 0.0035974
 5623.02650 1.5500292 0.0036264
 5628.64691 1.5537114 0.0035915
 5634.26733 1.5570005 0.0035439
 5639.90359 1.5636950 0.0035185
 5645.53946 1.5644819 0.0034941
 5651.19157 1.5655559 0.0034992
 5656.84367 1.5660647 0.0035007
 5662.51124 1.5671834 0.0035137
 5668.16335 1.5656914 0.0035332
 5673.83130 1.5630692 0.0035943
 5679.51472 1.5625426 0.0035303
 5685.18267 1.5625036 0.0035240
 5690.86648 1.5591686 0.0034949
 5696.56574 1.5539316 0.0034869
 5702.26539 1.5454952 0.0034586
 5707.96504 1.5370337 0.0034154
 5713.68015 1.5303524 0.0033842
 5719.37980 1.5244610 0.0033589
 5725.11075 1.5190893 0.0033347
 5730.82625 1.5113510 0.0033594
 5736.55721 1.5015495 0.0033427
 5742.30440 1.4936672 0.0032978
 5748.03536 1.4884847 0.0032864
 5753.78255 1.4770463 0.0032781
 5759.54520 1.4721197 0.0032683
 5765.30824 1.4673789 0.0032606
 5771.07089 1.4657381 0.0033168
 5776.84978 1.4654762 0.0032459
 5782.61243 1.4657431 0.0032395
 5788.40678 1.4683875 0.0032319
 5794.18567 1.4667659 0.0032466
 5799.98001 1.4639190 0.0032660
 5805.79021 1.4588993 0.0032898
 5811.58494 1.4524701 0.0033077
 5817.41098 1.4464455 0.0033071
 5823.22118 1.4409239 0.0033247
 5829.04761 1.4369376 0.0033401
 5834.87365 1.4330792 0.0033135
 5840.71554 1.4261748 0.0032616
 5846.54158 1.4195079 0.0032514
 5852.39970 1.4151632 0.0032307
 5858.24159 1.4130836 0.0032278
 5864.11518 1.4109817 0.0032325
 5869.97291 1.4123954 0.0032439
 5875.84650 1.4139324 0.0032701
 5881.72047 1.4182562 0.0033144
 5887.59405 1.4214840 0.0032635
 5893.48348 1.4265367 0.0032668
 5899.38876 1.4326397 0.0032403
 5905.27820 1.4332139 0.0032293
 5911.18347 1.4372969 0.0031937
 5917.10460 1.4391257 0.0031571
 5923.00988 1.4380919 0.0031883
 5928.94685 1.4354419 0.0031236
 5934.86798 1.4307848 0.0031236
 5940.80495 1.4268204 0.0031356
 5946.74193 1.4198198 0.0031510
 5952.69475 1.4119658 0.0031471
 5958.64757 1.4049988 0.0031637
 5964.60039 1.3947856 0.0031766
 5970.56906 1.3858757 0.0031835
 5976.53773 1.3766906 0.0031729
 5982.52224 1.3670909 0.0031760
 5988.49091 1.3593369 0.0031508
 5994.49128 1.3555379 0.0031306
 6000.47579 1.3519469 0.0031088
 6006.47577 1.3506627 0.0030847
 6012.49198 1.3468786 0.0030528
 6018.50819 1.3445994 0.0030371
 6024.52440 1.3427552 0.0030300
 6030.54061 1.3423980 0.0030419
 6036.57228 1.3430297 0.0031026
 6042.62019 1.3438071 0.0030416
 6048.65225 1.3437839 0.0030431
 6054.70015 1.3435243 0.0030436
 6060.76352 1.3411300 0.0030636
 6066.82727 1.3422369 0.0030787
 6072.89102 1.3447260 0.0031108
 6078.95439 1.3430485 0.0031350
 6085.03399 1.3472843 0.0031419
 6091.12944 1.3533316 0.0031504
 6097.22450 1.3587046 0.0031481
 6103.31995 1.3656192 0.0031378
 6109.41501 1.3736361 0.0031227
 6115.52630 1.3793368 0.0031052
 6121.63721 1.3878579 0.0030759
 6127.76435 1.3936841 0.0030552
 6133.89111 1.3990978 0.0030396
 6140.03410 1.4045216 0.0030210
 6146.16086 1.4133852 0.0030243
 6152.31969 1.4200056 0.0030581
 6158.46230 1.4273334 0.0030408
 6164.62113 1.4345403 0.0030194
 6170.79543 1.4357526 0.0030568
 6176.97012 1.4401666 0.0030221
 6183.14441 1.4470775 0.0030128
 6189.31871 1.4494272 0.0030201
 6195.50924 1.4510899 0.0030258
 6201.71524 1.4543129 0.0030435
 6207.90538 1.4553372 0.0030603
 6214.12761 1.4536477 0.0030758
 6220.33360 1.4523574 0.0031421
 6226.55544 1.4495815 0.0030920
 6232.77767 1.4490675 0.0030776
 6239.01536 1.4503536 0.0030735
 6245.25304 1.4494284 0.0030740
 6251.50658 1.4462327 0.0030755
 6257.74465 1.4412869 0.0030760
 6264.01404 1.4378690 0.0030738
 6270.26757 1.4325701 0.0030624
 6276.53695 1.4291891 0.0030603
 6282.82218 1.4239517 0.0030551
 6289.10741 1.4166446 0.0030835
 6295.39264 1.4107780 0.0030211
 6301.69411 1.4053938 0.0030115
 6307.99518 1.3968222 0.0030073
 6314.29626 1.3889446 0.0029621
 6320.61319 1.3797907 0.0029404
 6326.93011 1.3728937 0.0029701
 6333.26288 1.3668247 0.0029528
 6339.59565 1.3605158 0.0029859
 6345.92843 1.3581585 0.0029813
 6352.27705 1.3549091 0.0030122
 6358.62567 1.3534319 0.0030440
 6364.99013 1.3502219 0.0030716
 6371.35460 1.3464100 0.0031130
 6377.73453 1.3441235 0.0031241
 6384.09899 1.3414127 0.0031183
 6390.49515 1.3415860 0.0030799
 6396.89132 1.3437022 0.0030792
 6403.28748 1.3443972 0.0030850
 6409.68364 1.3473704 0.0030945
 6416.09526 1.3478259 0.0031117
 6422.50727 1.3500400 0.0031651
 6428.93513 1.3535875 0.0031726
 6435.36298 1.3584070 0.0031265
 6441.79084 1.3613172 0.0031384
 6448.23416 1.3661320 0.0031665
 6454.69371 1.3692096 0.0031387
 6461.13741 1.3714755 0.0031272
 6467.61242 1.3753848 0.0031070
 6474.07198 1.3752800 0.0030822
 6480.54737 1.3767010 0.0030527
 6487.02277 1.3767644 0.0030880
 6493.51325 1.3773273 0.0031194
 6500.00449 1.3788924 0.0031046
 6506.51197 1.3789442 0.0030590
 6513.01868 1.3773868 0.0030319
 6519.52538 1.3735112 0.0030590
 6526.04833 1.3695995 0.0031212
 6532.57127 1.3660812 0.0031799
 6539.10967 1.3610044 0.0032564
 6545.64807 1.3575382 0.0033646
 6552.18647 1.3517534 0.0033322
 6558.74111 1.3453083 0.0033308
 6565.31120 1.3358871 0.0032836
 6571.86584 1.3283137 0.0032340
 6578.45217 1.3190897 0.0031695
 6585.02226 1.3103828 0.0030963
 6591.60859 1.3032519 0.0030450
 6598.19415 1.2946885 0.0029986
 6604.79594 1.2861408 0.0029944
 6611.39851 1.2809747 0.0030052
 6618.01576 1.2757509 0.0029791
 6624.63378 1.2713596 0.0030181
 6631.26727 1.2667449 0.0029835
 6637.88529 1.2593633 0.0029792
 6644.53424 1.2530624 0.0029781
 6651.16773 1.2477010 0.0029875
 6657.81745 1.2416836 0.0029932
 6664.48263 1.2384009 0.0029937
 6671.14781 1.2331667 0.0030051
 6677.81299 1.2277122 0.0030133
 6684.49440 1.2244548 0.0030190
 6691.17505 1.2181693 0.0030195
 6697.87192 1.2144921 0.0030288
 6704.56880 1.2099528 0.0030422
 6711.28191 1.2057461 0.0030368
 6717.99424 1.1998343 0.0030405
 6724.70735 1.1921335 0.0030340
 6731.43592 1.1847528 0.0030710
 6738.16449 1.1806891 0.0030493
 6744.90852 1.1742887 0.0030348
 6751.65333 1.1677845 0.0030376
 6758.39736 1.1601809 0.0030432
 6765.15762 1.1472316 0.0030631
 6771.91789 1.1373560 0.0030848
 6778.69439 1.1271454 0.0031444
 6785.47011 1.1196485 0.0031293
 6792.26207 1.1093053 0.0031277
 6799.05403 1.1014667 0.0031430
 6805.84599 1.0955181 0.0031966
 6812.65341 1.0922480 0.0031766
 6819.47707 1.0869441 0.0031880
 6826.28526 1.0868633 0.0032383
 6833.12438 1.0844312 0.0032449
 6839.94803 1.0843590 0.0032537
 6846.78715 1.0858157 0.0032961
 6853.64250 1.0883642 0.0033475
 6860.49785 1.0931261 0.0034165
 6867.35320 1.0999790 0.0034299
 6874.22401 1.1038055 0.0034256
 6881.09482 1.1090343 0.0034317
 6887.98186 1.1084452 0.0034264
 6894.86890 1.1095951 0.0034158
 6901.75595 1.1131572 0.0034085
 6908.65845 1.1136980 0.0034224
 6915.57719 1.1191067 0.0033793
 6922.47970 1.1200591 0.0033649
 6929.41390 1.1267376 0.0033764
 6936.33264 1.1314160 0.0034249
 6943.26684 1.1359420 0.0034114
 6950.21727 1.1381892 0.0034866
 6957.16770 1.1424402 0.0035389
 6964.13360 1.1447935 0.0035245
 6971.08403 1.1498040 0.0036049
 6978.06539 1.1557025 0.0037332
 6985.04752 1.1578025 0.0038586
 6992.02964 1.1608016 0.0039742
 6999.01100 1.1636480 0.0040988
 7006.02482 1.1637841 0.0042568
 7013.02241 1.1670141 0.0044712
 7020.03624 1.1653115 0.0047351
 7027.06552 1.1704865 0.0050091
 7034.07934 1.1701213 0.0053719
 7041.12409 1.1715999 0.0057077
 7048.15337 1.1796314 0.0060825
 7055.21435 1.1839228 0.0063815
 7062.25987 1.1980674 0.0066961
 7069.33708 1.2013112 0.0069383
 7076.39806 1.2034843 0.0070509
 7083.47450 1.2057101 0.0070618
 7090.56717 1.2065852 0.0067962
 7097.64439 1.2090935 0.0066287
 7104.75252 1.2126356 0.0064143
 7111.84520 1.2116553 0.0063050
 7118.96956 1.2125022 0.0061455
 7126.07847 1.2129102 0.0059420
 7133.20284 1.2195504 0.0057664
 7140.34267 1.2235777 0.0055879
 7147.48327 1.2250758 0.0053727
 7154.63934 1.2240905 0.0051923
 7161.77917 1.2218648 0.0049990
 7168.95146 1.2223346 0.0048464
 7176.12299 1.2250577 0.0046907
 7183.29528 1.2270497 0.0045761
 7190.48227 1.2241850 0.0044949
 7197.67003 1.2240732 0.0044206
 7204.87402 1.2213445 0.0044037
 7212.07724 1.2180512 0.0043224
 7219.28123 1.2180320 0.0042534
 7226.49991 1.2174861 0.0041933
 7233.73560 1.2167656 0.0041648
 7240.97051 1.2164124 0.0041110
 7248.20620 1.2152272 0.0040769
 7255.45657 1.2159786 0.0040399
 7262.70772 1.2170115 0.0040089
 7269.97510 1.2217655 0.0040553
 7277.24171 1.2208427 0.0039677
 7284.52455 1.2196651 0.0039273
 7291.80662 1.2182797 0.0039094
 7299.10570 1.2203313 0.0038972
 7306.40400 1.2215730 0.0039207
 7313.70230 1.2220170 0.0039194
 7321.01684 1.2220408 0.0039223
 7328.34684 1.2189417 0.0039175
 7335.67761 1.2165509 0.0039390
 7343.00761 1.2137964 0.0039691
 7350.35384 1.2094223 0.0039413
 7357.69930 1.2036076 0.0038497
 7365.06099 1.1966718 0.0038304
 7372.42346 1.1904913 0.0038479
 7379.80061 1.1848277 0.0038675
 7387.17854 1.1781350 0.0039069
 7394.57193 1.1688951 0.0039598
 7401.94985 1.1629152 0.0040071
 7409.35870 1.1547008 0.0040803
 7416.76832 1.1432494 0.0040558
 7424.19340 1.1328917 0.0040115
 7431.61849 1.1207781 0.0039484
 7439.04357 1.1116190 0.0038990
 7446.48489 1.0995618 0.0038212
 7453.92620 1.0899616 0.0037474
 7461.38298 1.0794867 0.0036826
 7468.83976 1.0698223 0.0036360
 7476.31199 1.0586958 0.0036578
 7483.80047 1.0492324 0.0036838
 7491.27348 1.0398831 0.0036494
 7498.76195 1.0328348 0.0035969
 7506.26666 1.0256501 0.0035864
 7513.77059 1.0232960 0.0035696
 7521.29076 1.0187413 0.0035724
 7528.81092 1.0140464 0.0035556
 7536.34732 1.0094936 0.0035525
 7543.86749 1.0093116 0.0035432
 7551.41935 1.0079958 0.0035397
 7558.97044 1.0085655 0.0035359
 7566.53853 1.0061285 0.0035172
 7574.10586 1.0037526 0.0035190
 7581.67395 1.0030237 0.0035116
 7589.25751 1.0022495 0.0034939
 7596.84107 1.0003808 0.0034850
 7604.44008 0.9975665 0.0034736
 7612.03910 0.9945261 0.0034606
 7619.65435 0.9901047 0.0034478
 7627.28584 0.9846790 0.0034213
 7634.91655 0.9811943 0.0034828
 7642.54726 0.9764355 0.0034156
 7650.17874 0.9708792 0.0033792
 7657.84115 0.9662827 0.0033701
 7665.48810 0.9594943 0.0033697
 7673.15050 0.9544968 0.0033746
 7680.82914 0.9485393 0.0033798
 7688.50779 0.9488578 0.0033855
 7696.20189 0.9468480 0.0034277
 7703.89599 0.9474249 0.0033671
 7711.60632 0.9462054 0.0033541
 7719.31666 0.9466535 0.0033376
 7727.02699 0.9487569 0.0033175
 7734.76825 0.9521201 0.0033410
 7742.49482 0.9557920 0.0033105
 7750.23608 0.9604343 0.0032762
 7757.99434 0.9628592 0.0032528
 7765.75183 0.9666557 0.0032640
 7773.50932 0.9684706 0.0032864
 7781.29851 0.9711043 0.0033214
 7789.07224 0.9732404 0.0032622
 7796.86142 0.9743054 0.0032621
 7804.66684 0.9762887 0.0032443
 7812.45603 0.9745163 0.0032099
 7820.27691 0.9745123 0.0031887
 7828.09779 0.9719242 0.0031594
 7835.91867 0.9721721 0.0031556
 7843.75578 0.9703158 0.0031657
 7851.60836 0.9699842 0.0031438
 7859.46093 0.9669179 0.0031081
 7867.31351 0.9648557 0.0030683
 7875.18232 0.9660720 0.0030749
 7883.06659 0.9680362 0.0031128
 7890.95086 0.9674308 0.0031320
 7898.83513 0.9675438 0.0031239
 7906.73486 0.9666537 0.0031368
 7914.63537 0.9667914 0.0031445
 7922.55133 0.9653203 0.0031344
 7930.48276 0.9663795 0.0031216
 7938.41496 0.9661651 0.0030661
 7946.34638 0.9650939 0.0030225
 7954.29404 0.9656260 0.0029776
 7962.24170 0.9651594 0.0029331
 7970.20482 0.9639060 0.0028929
 7978.18418 0.9626865 0.0028622
 7986.16353 0.9605639 0.0028325
 7994.15912 0.9582587 0.0028204
 8002.13847 0.9570892 0.0028239
 8010.14952 0.9534317 0.0027763
 8018.15980 0.9522865 0.0027415
 8026.17085 0.9529769 0.0027172
 8034.19813 0.9515010 0.0027172
 8042.24010 0.9504231 0.0026952
 8050.28285 0.9518206 0.0026421
 8058.32559 0.9510429 0.0026450
 8066.38380 0.9505206 0.0026418
 8074.45823 0.9501570 0.0026285
 8082.53267 0.9515005 0.0026535
 8090.60711 0.9520273 0.0026737
 8098.69701 0.9540291 0.0027133
 8106.80315 0.9540901 0.0027406
 8114.90928 0.9543390 0.0027563
 8123.03087 0.9546304 0.0027615
 8131.15247 0.9522868 0.0027478
 8139.27406 0.9503394 0.0027311
 8147.42813 0.9483600 0.0026937
 8155.56518 0.9465605 0.0026606
 8163.71924 0.9451890 0.0026192
 8171.88799 0.9432337 0.0025993
 8180.05752 0.9429241 0.0025463
 8188.24250 0.9428741 0.0025606
 8196.42749 0.9451019 0.0025287
 8204.62870 0.9453281 0.0025158
 8212.82915 0.9454600 0.0025494
 8221.04660 0.9465901 0.0025869
 8229.26328 0.9479815 0.0025978
 8237.49542 0.9518807 0.0026226
 8245.72833 0.9532843 0.0026446
 8253.97671 0.9540806 0.0026694
 8262.24131 0.9516523 0.0026459
 8270.48969 0.9509056 0.0026078
 8278.76976 0.9499701 0.0026185
 8287.04982 0.9458885 0.0025472
 8295.32989 0.9427748 0.0024980
 8303.62542 0.9403585 0.0024675
 8311.93718 0.9357680 0.0024563
 8320.24895 0.9330167 0.0024609
 8328.56071 0.9280361 0.0025079
 8336.88871 0.9256805 0.0025000
 8345.23217 0.9235923 0.0025406
 8353.57562 0.9203968 0.0025073
 8361.93454 0.9148269 0.0025034
 8370.29424 0.9126073 0.0024933
 8378.66862 0.9094946 0.0025004
 8387.04377 0.9073369 0.0024919
 8395.43515 0.9047728 0.0024701
 8403.82577 0.8999068 0.0024596
 8412.23262 0.8951348 0.0024520
 8420.63946 0.8899189 0.0024496
 8429.06177 0.8852295 0.0024482
 8437.50031 0.8818162 0.0024772
 8445.93886 0.8773835 0.0024503
 8454.37740 0.8717185 0.0024391
 8462.83140 0.8677216 0.0024335
 8471.30164 0.8648207 0.0024241
 8479.77188 0.8612345 0.0024139
 8488.25757 0.8567410 0.0023968
 8496.72781 0.8547176 0.0023939
 8505.22974 0.8518809 0.0023862
 8513.74714 0.8475115 0.0023869
 8522.24907 0.8432750 0.0023621
 8530.78192 0.8402011 0.0023476
 8539.30009 0.8355764 0.0023437
 8547.84918 0.8324046 0.0023541
 8556.39826 0.8280793 0.0023699
 8564.94735 0.8219682 0.0023859
 8573.51267 0.8162989 0.0023720
 8582.09345 0.8115786 0.0023954
 8590.67424 0.8074861 0.0024110
 8599.27125 0.8048581 0.0024350
 8607.86750 0.8002012 0.0024716
 8616.48075 0.7966949 0.0024999
 8625.09322 0.7920922 0.0025438
 8633.72116 0.7912065 0.0025546
 8642.34987 0.7874148 0.0025701
 8650.99404 0.7855584 0.0025756
 8659.63822 0.7816336 0.0025818
 8668.29862 0.7763394 0.0025528
 8676.97449 0.7715794 0.0025379
 8685.65036 0.7653564 0.0024880
 8694.34168 0.7587169 0.0024551
 8703.03378 0.7531728 0.0024006
 8711.74135 0.7466577 0.0023659
 8720.44891 0.7395212 0.0023456
 8729.17193 0.7329663 0.0023230
 8737.89573 0.7278684 0.0022811
 8746.63498 0.7217938 0.0022892
 8755.37424 0.7176812 0.0022385
 8764.12896 0.7117288 0.0022056
 8772.89991 0.7052775 0.0021893
 8781.67086 0.7018303 0.0021809
 8790.45727 0.6981423 0.0021796
 8799.24445 0.6940185 0.0021660
 8808.04710 0.6888884 0.0021613
 8816.86521 0.6848875 0.0021606
 8825.66785 0.6795929 0.0021572
 8834.50219 0.6758609 0.0021375
 8843.33576 0.6730179 0.0021142
 8852.18634 0.6710778 0.0020995
 8861.03614 0.6698345 0.0020819
 8869.88594 0.6670661 0.0020605
 8878.76821 0.6624176 0.0020410
 8887.64970 0.6602883 0.0020258
 8896.53120 0.6583061 0.0020094
 8905.42893 0.6550817 0.0020060
 8914.32666 0.6516623 0.0020083
 8923.23985 0.6481602 0.0019883
 8932.16928 0.6441286 0.0019790
 8941.09793 0.6431878 0.0019783
 8950.04359 0.6420500 0.0019774
 8959.00393 0.6397387 0.0019702
 8967.94959 0.6356033 0.0019706
 8976.92617 0.6337881 0.0019783
 8985.90275 0.6294901 0.0019857
 8994.87933 0.6260518 0.0019950
 9003.88761 0.6231470 0.0020123
 9012.88042 0.6213395 0.0020304
 9021.90416 0.6187667 0.0020611
 9030.92867 0.6120011 0.0020607
 9039.95318 0.6056163 0.0020462
 9048.99315 0.5986438 0.0020421
 9058.04858 0.5934201 0.0020506
 9067.10479 0.5879047 0.0020799
 9076.17645 0.5831886 0.0020894
 9085.24811 0.5796062 0.0020923
 9094.33524 0.5765235 0.0021110
 9103.42314 0.5750318 0.0021335
 9112.52650 0.5757353 0.0021717
 9121.64532 0.5760368 0.0021916
 9130.76491 0.5770604 0.0022167
 9139.89997 0.5795112 0.0022164
 9149.03502 0.5811045 0.0022312
 9158.18554 0.5803725 0.0022027
 9167.33683 0.5821869 0.0021958
 9176.51904 0.5817742 0.0021810
 9185.68579 0.5822644 0.0021862
 9194.88423 0.5807593 0.0021775
 9204.06644 0.5776350 0.0021562
 9213.28112 0.5769340 0.0021365
 9222.49502 0.5768055 0.0021288
 9231.70893 0.5767431 0.0020977
 9240.93907 0.5756156 0.0020948
 9250.18544 0.5742803 0.0020600
 9259.43104 0.5726010 0.0020458
 9268.69287 0.5714210 0.0020346
 9277.97017 0.5693696 0.0020107
 9287.24746 0.5691435 0.0019876
 9296.52476 0.5681726 0.0019663
 9305.83452 0.5670454 0.0019490
 9315.12727 0.5674375 0.0019350
 9324.45250 0.5649187 0.0019328
 9333.77772 0.5620120 0.0018888
 9343.10294 0.5587022 0.0018820
 9352.45909 0.5563756 0.0018792
 9361.80055 0.5555106 0.0018856
 9371.17293 0.5535683 0.0018769
 9380.54530 0.5520608 0.0018879
 9389.91768 0.5538518 0.0018874
 9399.30630 0.5537954 0.0018794
 9408.71037 0.5536541 0.0018680
 9418.11444 0.5528413 0.0018715
 9427.53398 0.5518971 0.0018649
 9436.97052 0.5511319 0.0018736
 9446.40629 0.5507024 0.0018612
 9455.84206 0.5500202 0.0018495
 9465.30952 0.5499617 0.0018670
 9474.77698 0.5495284 0.0019038
 9484.24445 0.5504010 0.0019274
 9493.72737 0.5498925 0.0018768
 9503.22653 0.5467198 0.0018971
 9512.72569 0.5439332 0.0019175
 9522.24108 0.5406104 0.0019691
 9531.77193 0.5386336 0.0020421
 9541.30278 0.5354546 0.0021419
 9550.84910 0.5322571 0.0022754
 9560.39618 0.5310703 0.0024158
 9569.95873 0.5287867 0.0025361
 9579.52051 0.5236555 0.0025858
 9589.09929 0.5239441 0.0026098
 9598.69353 0.5230865 0.0025743
 9608.28777 0.5208546 0.0025770
 9617.89747 0.5205743 0.0024737
 9627.52341 0.5182371 0.0023097
 9637.14935 0.5169166 0.0021928
 9646.79075 0.5141736 0.0021073
 9656.43215 0.5141832 0.0021067
 9666.08978 0.5137048 0.0020564
 9675.74741 0.5098689 0.0020005
 9685.43674 0.5069938 0.0020004
 9695.12529 0.5024213 0.0019975
 9704.81462 0.5007873 0.0019859
 9714.51940 0.4981909 0.0019781
 9724.24043 0.4955648 0.0019520
 9733.96145 0.4932420 0.0019432
 9743.69793 0.4920676 0.0019307
 9753.43441 0.4924580 0.0019210
 9763.18713 0.4922038 0.0019003
 9772.95530 0.4939756 0.0018940
 9782.72348 0.4961285 0.0019079
 9792.50789 0.4987477 0.0019407
 9802.30776 0.5000157 0.0019264
 9812.10764 0.5006060 0.0019040
 9821.92374 0.5027077 0.0018972
 9831.73908 0.5040085 0.0019152
 9841.57064 0.5070673 0.0019446
 9851.41844 0.5085295 0.0019497
 9861.26624 0.5082850 0.0019937
 9871.12950 0.5089105 0.0019950
 9881.00823 0.5088732 0.0020059
 9890.87149 0.5122252 0.0020078
 9900.76644 0.5123961 0.0020324
 9910.67763 0.5131181 0.0020229
 9920.58805 0.5139542 0.0020463
 9930.51470 0.5151979 0.0020283
 9940.44135 0.5168533 0.0020137
 9950.38347 0.5171906 0.0019735
 9960.32635 0.5191177 0.0019823
 9970.28470 0.5186869 0.0019423
 9980.25850 0.5171099 0.0019232
 9990.24854 0.5163211 0.0019076
 10000.23858 0.5152869 0.0019239
 10010.22863 0.5146862 0.0018953
 10020.25036 0.5130361 0.0018751
 10030.27210 0.5126985 0.0018717
 10040.29306 0.5124996 0.0018839
 10050.33103 0.5135371 0.0019436
 10060.38446 0.5154282 0.0019144
 10070.45335 0.5173376 0.0019068
 10080.52224 0.5213886 0.0018986
 10090.59113 0.5240295 0.0018849
 10100.69249 0.5276269 0.0018688
 10110.79308 0.5299562 0.0018494
 10120.90989 0.5323322 0.0018360
 10131.02594 0.5330891 0.0018146
 10141.15822 0.5318894 0.0018004
 10151.30674 0.5298570 0.0018034
 10161.43902 0.5267872 0.0017605
 10171.60377 0.5241777 0.0017640
 10181.78320 0.5209830 0.0017452
 10191.96341 0.5170771 0.0017471
 10202.15908 0.5143672 0.0017404
 10212.35475 0.5120180 0.0017397
 10222.58212 0.5080010 0.0017525
 10232.79402 0.5062411 0.0017644
 10243.02139 0.5053026 0.0017803
 10253.28045 0.5039637 0.0017890
 10263.52327 0.5025603 0.0017889
 10273.78233 0.5030776 0.0017805
 10284.05762 0.5030612 0.0017768
 10294.34838 0.5040223 0.0017686
 10304.63913 0.5038917 0.0017552
 10314.94535 0.5035821 0.0017535
 10325.26780 0.5027845 0.0017548
 10335.59025 0.5010519 0.0017486
 10345.92893 0.4999213 0.0017471
 10356.26684 0.4996696 0.0017422
 10366.62098 0.4982467 0.0017632
 10376.99136 0.4962770 0.0017683
 10387.37643 0.4930526 0.0017997
 10397.76227 0.4917281 0.0018554
 10408.16434 0.4893233 0.0018742
 10418.56564 0.4851175 0.0018658
 10428.98317 0.4805777 0.0018718
 10439.41617 0.4792542 0.0018940
 10449.86540 0.4766009 0.0019112
 10460.31463 0.4732575 0.0019087
 10470.76385 0.4691359 0.0019119
 10481.24400 0.4677485 0.0018775
 10491.72493 0.4648957 0.0018584
 10502.22131 0.4633341 0.0018087
 10512.71847 0.4603662 0.0017770
 10523.23031 0.4579725 0.0017548
 10533.75916 0.4553923 0.0017375
 10544.28724 0.4530248 0.0017197
 10554.83078 0.4501114 0.0017101
 10565.39133 0.4456829 0.0016977
 10575.95110 0.4439173 0.0016745
 10586.52634 0.4419259 0.0016353
 10597.11781 0.4385833 0.0016050
 10607.71005 0.4349005 0.0015917
 10618.31698 0.4307937 0.0015908
 10628.94014 0.4262706 0.0015685
 10639.56330 0.4212582 0.0015708
 10650.21816 0.4163478 0.0015421
 10660.85756 0.4111097 0.0015092
 10671.52788 0.4071007 0.0014868
 10682.19897 0.4029641 0.0014609
 10692.88552 0.3992206 0.0014543
 10703.57207 0.3957486 0.0014419
 10714.27409 0.3919934 0.0014177
 10724.99234 0.3887361 0.0014055
 10735.71058 0.3861405 0.0013828
 10746.46053 0.3842007 0.0013750
 10757.19501 0.3816488 0.0013546
 10767.96041 0.3794049 0.0013552
 10778.72659 0.3761535 0.0013437
 10789.50745 0.3744615 0.0013488
 10800.30532 0.3719062 0.0013631
 10811.10242 0.3698951 0.0013670
 10821.91575 0.3682288 0.0013832
 10832.72908 0.3673719 0.0013735
 10843.55788 0.3660844 0.0013762
 10854.40290 0.3663275 0.0013851
 10865.26339 0.3665920 0.0013850
 10876.12465 0.3675544 0.0013602
 10887.00060 0.3682997 0.0013329
 10897.89355 0.3675493 0.0013257
 10908.78574 0.3672366 0.0013463
 10919.70961 0.3672276 0.0013679
 10930.61803 0.3667953 0.0013965
 10941.55737 0.3661606 0.0014258
 10952.49748 0.3655018 0.0014647
 10963.43759 0.3654081 0.0015035
 10974.40862 0.3650538 0.0015622
 10985.38043 0.3642750 0.0016336
 10996.36770 0.3644048 0.0017369
 11007.37120 0.3644416 0.0018638
 11018.37392 0.3644184 0.0020428
 11029.39288 0.3647202 0.0022561
 11040.42808 0.3646455 0.0025835
 11051.46328 0.3645824 0.0030159
 11062.51393 0.3640819 0.0036068
 11073.58005 0.3627527 0.0042280
