# SOURCE  = 'Quimby et al. 2018' /                                                
# OBJECT  = 'PTF09cnd'           /                                                
# Z       =             0.258500 / wavelengths in OBSERVER FRAME                 
# NORM    =          1.58200E-16 / fluxes divided by norm                         
# CLIPPED =                    1 / galaxy emission lines removed                  
# SMOOTHED=                    1 / spectrum has been smoothed                     
# COLUMN01= 'Wavelength (Angstrom)' /                                             
# COLUMN02= 'Flux Density (erg/s/cm2/A)' /                                        
# COLUMN03= 'Flux Density Uncertainty (erg/s/cm2/A)' /                            
# END                                                                             
# 
# 
# 
# 
# 
# 
# 
# 
# 
# 
# Converted to Observer Frame using z=0.258
 3967.07001 2.5763843 0.0776429
 3971.04384 2.5478265 0.0750302
 3975.00182 2.5816536 0.0730197
 3978.97565 2.6212149 0.0711918
 3982.96533 2.6588194 0.0695952
 3986.93916 2.6545110 0.0683466
 3990.92884 2.6739702 0.0672579
 3994.91852 2.6628637 0.0662721
 3998.92404 2.7060623 0.0652919
 4002.91333 2.8015902 0.0644450
 4006.91886 2.8023546 0.0636350
 4010.92438 2.8281868 0.0627195
 4014.94575 2.8290172 0.0617294
 4018.95128 2.8620310 0.0605920
 4022.97265 2.8880036 0.0593776
 4026.99402 2.9250987 0.0582454
 4031.01501 2.9660017 0.0574267
 4035.05223 3.0217154 0.0563180
 4039.08945 3.0149786 0.0551023
 4043.12667 2.9588282 0.0538240
 4047.17973 2.8912439 0.0525740
 4051.21657 2.8441081 0.0513496
 4055.26963 2.7739246 0.0500203
 4059.32270 2.7042198 0.0489288
 4063.39161 2.6681197 0.0476843
 4067.44429 2.6175520 0.0465590
 4071.51321 2.5543773 0.0453956
 4075.58212 2.5164063 0.0442789
 4079.66688 2.4769289 0.0431602
 4083.75126 2.4461236 0.0422045
 4087.82017 2.4143565 0.0412087
 4091.92078 2.4109888 0.0398934
 4096.00516 2.3982725 0.0386532
 4100.10577 2.3764796 0.0376957
 4104.20638 2.3364952 0.0369473
 4108.30660 2.2974608 0.0361736
 4112.42305 2.2683437 0.0354379
 4116.52328 2.2399395 0.0348026
 4120.63973 2.2306132 0.0342590
 4124.77204 2.2104969 0.0340053
 4128.88811 2.1790242 0.0336949
 4133.02041 2.1828940 0.0333712
 4137.15233 2.1608346 0.0332810
 4141.30048 2.1433661 0.0337219
 4145.43240 2.1539178 0.0343514
 4149.58055 2.1499288 0.0330939
 4153.72831 2.1294272 0.0317755
 4157.87646 2.1303439 0.0309512
 4162.04008 2.1309876 0.0304417
 4166.20407 2.1234748 0.0300603
 4170.36769 2.0779977 0.0297742
 4174.54753 2.0662293 0.0295654
 4178.71114 2.0423875 0.0294351
 4182.89099 1.9951609 0.0298657
 4187.07045 1.9939870 0.0293120
 4191.26614 1.9848588 0.0286406
 4195.46145 1.9737924 0.0282325
 4199.65676 1.9406765 0.0281062
 4203.85245 1.9274668 0.0280534
 4208.06360 1.8800800 0.0280517
 4212.25930 1.8509315 0.0285072
 4216.47045 1.8132257 0.0283434
 4220.69745 1.7763345 0.0280269
 4224.90899 1.7262087 0.0276885
 4229.13600 1.7077266 0.0273432
 4233.36300 1.6908234 0.0267635
 4237.60623 1.7130623 0.0261234
 4241.83323 1.7117068 0.0262345
 4246.07608 1.7155406 0.0250942
 4250.33478 1.7231984 0.0237662
 4254.57802 1.7408390 0.0230524
 4258.83671 1.7709872 0.0227169
 4263.09541 1.8156652 0.0226743
 4267.35410 1.8431737 0.0223812
 4271.62904 1.8792295 0.0218743
 4275.90358 1.8966540 0.0218195
 4280.17812 1.9262718 0.0220447
 4284.45267 1.9711943 0.0217837
 4288.74306 1.9853121 0.0215809
 4293.01799 2.0152779 0.0216116
 4297.32423 2.0617797 0.0219119
 4301.61462 2.0915241 0.0223322
 4305.92086 2.1404190 0.0230319
 4310.22710 2.1719067 0.0227075
 4314.53333 2.2044935 0.0228098
 4318.85542 2.2140331 0.0229180
 4323.16166 2.2178633 0.0230791
 4327.48374 2.2333961 0.0229304
 4331.82168 2.2600591 0.0226825
 4336.14415 2.3153982 0.0219293
 4340.48208 2.3466065 0.0215484
 4344.82002 2.3848848 0.0212050
 4349.17380 2.4277549 0.0210230
 4353.52758 2.4464731 0.0208033
 4357.88136 2.4658890 0.0210018
 4362.23514 2.4715695 0.0205902
 4366.58892 2.4680498 0.0197846
 4370.95855 2.4670959 0.0194598
 4375.32818 2.4612985 0.0191142
 4379.71327 2.4520018 0.0187161
 4384.08289 2.4361596 0.0187622
 4388.46837 2.4259772 0.0189844
 4392.86969 2.3533370 0.0186295
 4397.25517 2.3416996 0.0187013
 4401.65649 2.3243048 0.0179595
 4406.05781 2.3199284 0.0172008
 4410.45914 2.3056283 0.0167713
 4414.87631 2.2954855 0.0165942
 4419.29309 2.2837892 0.0165393
 4423.71026 2.2743354 0.0164933
 4428.12743 2.2768340 0.0166772
 4432.56045 2.2751317 0.0169897
 4436.99347 2.2931559 0.0174319
 4441.42648 2.3155465 0.0178027
 4445.87496 2.3359807 0.0182524
 4450.32383 2.3427920 0.0187975
 4454.77269 2.3319120 0.0190078
 4459.22156 2.3276455 0.0188768
 4463.68588 2.3282673 0.0186372
 4468.15060 2.3097279 0.0183699
 4472.61531 2.3028915 0.0182157
 4477.07964 2.2984400 0.0178571
 4481.56020 2.2660244 0.0169833
 4486.04076 2.2529328 0.0164590
 4490.53678 2.2524395 0.0161537
 4495.01734 2.2273302 0.0163203
 4499.51374 2.2205808 0.0159630
 4504.02561 2.2080073 0.0161940
 4508.52202 2.2036657 0.0158686
 4513.03427 2.2093916 0.0156343
 4517.54614 2.2081637 0.0155996
 4522.05840 2.2085626 0.0156422
 4526.58611 2.2133114 0.0156112
 4531.11421 2.2359350 0.0156436
 4535.64232 2.2237182 0.0154994
 4540.18588 2.2310686 0.0156094
 4544.71398 2.2258303 0.0155507
 4549.25754 2.1919262 0.0155360
 4553.81734 2.1748815 0.0153479
 4558.36090 2.1522207 0.0154814
 4562.92070 2.1427205 0.0155560
 4567.49596 2.1352971 0.0158770
 4572.05575 2.1071537 0.0161726
 4576.63101 2.0935931 0.0168386
 4581.20627 2.0847452 0.0164618
 4585.78191 2.0616150 0.0166248
 4590.37302 2.0450833 0.0170870
 4594.96451 2.0241377 0.0164159
 4599.55562 2.0025253 0.0159589
 4604.16257 1.9857161 0.0155212
 4608.76991 1.9917631 0.0152924
 4613.37686 1.9889940 0.0150496
 4617.98381 2.0052762 0.0148187
 4622.60700 2.0121224 0.0145508
 4627.22980 2.0171988 0.0144136
 4631.85260 2.0269971 0.0143193
 4636.49163 2.0291426 0.0143165
 4641.13028 2.0352240 0.0147551
 4645.76893 2.0312369 0.0146644
 4650.40796 2.0462191 0.0146831
 4655.06246 2.0326638 0.0145422
 4659.71695 2.0287023 0.0144209
 4664.37144 2.0259523 0.0142803
 4669.04179 1.9992738 0.0139629
 4673.71252 1.9838839 0.0142260
 4678.38286 1.9402921 0.0142345
 4683.06905 1.8864042 0.0140131
 4687.73939 1.8621947 0.0136301
 4692.42558 1.8314197 0.0135910
 4697.12800 1.8076122 0.0134919
 4701.83004 1.7910523 0.0135726
 4706.53208 1.7963231 0.0134282
 4711.23411 1.7985628 0.0134245
 4715.95200 1.8042690 0.0131858
 4720.65403 1.8119165 0.0127989
 4725.38776 1.8201321 0.0125246
 4730.10565 1.8258345 0.0122819
 4734.83938 1.8287492 0.0123835
 4739.57311 1.8254520 0.0117009
 4744.30684 1.8272111 0.0113911
 4749.05642 1.8157808 0.0112196
 4753.80600 1.8279324 0.0112903
 4758.55558 1.8287199 0.0114065
 4763.32101 1.8099791 0.0121553
 4768.08643 1.8259462 0.0119103
 4772.85186 1.8352412 0.0118490
 4777.61729 1.8441129 0.0119124
 4782.39856 1.8403352 0.0120910
 4787.17983 1.8399495 0.0124071
 4791.97695 1.8389844 0.0125489
 4796.75823 1.8457575 0.0125483
 4801.55535 1.8405823 0.0124599
 4806.36832 1.8292639 0.0121580
 4811.16505 1.8342074 0.0119400
 4815.97802 1.8284346 0.0116417
 4820.79099 1.8154577 0.0116158
 4825.61981 1.8060777 0.0115967
 4830.44862 1.8126341 0.0111194
 4835.27705 1.8147564 0.0107522
 4840.10587 1.8122258 0.0104813
 4844.95053 1.8284740 0.0104172
 4849.79519 1.8256696 0.0103328
 4854.63986 1.8422982 0.0105199
 4859.49998 1.8577358 0.0101423
 4864.36049 1.8608116 0.0100167
 4869.22100 1.8583398 0.0099768
 4874.09697 1.8480014 0.0098977
 4878.97333 1.8458540 0.0098677
 4883.84969 1.8390580 0.0098597
 4888.72566 1.8368979 0.0098932
 4893.61787 1.8320051 0.0096805
 4898.51007 1.8242450 0.0097092
 4903.41774 1.8224365 0.0098449
 4908.30995 1.8120873 0.0101166
 4913.21800 1.8002864 0.0104082
 4918.14151 1.7902509 0.0105827
 4923.06541 1.7797422 0.0108135
 4927.97308 1.7732950 0.0107625
 4932.91283 1.7672487 0.0106575
 4937.83634 1.7539696 0.0105060
 4942.77609 1.7425361 0.0102422
 4947.71545 1.7405764 0.0099694
 4952.67104 1.7242045 0.0097590
 4957.62625 1.6973938 0.0095511
 4962.58185 1.6763366 0.0094276
 4967.53706 1.6624258 0.0093201
 4972.50850 1.6457711 0.0092831
 4977.47956 1.6324865 0.0092566
 4982.46685 1.6187474 0.0093122
 4987.43790 1.6125444 0.0090639
 4992.42480 1.6118288 0.0089735
 4997.42794 1.5998187 0.0090379
 5002.41484 1.5918295 0.0090354
 5007.41798 1.5766858 0.0090411
 5012.43658 1.5747256 0.0091258
 5017.43933 1.5640767 0.0092114
 5022.45832 1.5626391 0.0091709
 5027.49276 1.5552247 0.0092460
 5032.51136 1.5434787 0.0093889
 5037.54580 1.5460010 0.0093842
 5042.58064 1.5349054 0.0095843
 5047.63093 1.5133648 0.0096534
 5052.68122 1.5067229 0.0096718
 5057.73152 1.4907249 0.0097592
 5062.78219 1.4895140 0.0098885
 5067.84834 1.4788289 0.0099570
 5072.91448 1.4769433 0.0101499
 5077.99646 1.4795040 0.0102621
 5083.06260 1.4847608 0.0102454
 5088.14498 1.4915777 0.0102000
 5093.24281 1.4830236 0.0101087
 5098.32480 1.4955397 0.0099831
 5103.43848 1.4940223 0.0098802
 5108.53632 1.4996651 0.0097945
 5113.65000 1.4913388 0.0098867
 5118.76368 1.4978932 0.0100753
 5123.87737 1.5052944 0.0094557
 5129.00690 1.5079921 0.0092829
 5134.13642 1.5083230 0.0092556
 5139.26595 1.5085441 0.0094465
 5144.41133 1.5085167 0.0095496
 5149.55671 1.5114636 0.0095951
 5154.70209 1.5046924 0.0095742
 5159.84746 1.5217817 0.0095515
 5165.00869 1.5247409 0.0094260
 5170.18576 1.5347840 0.0093247
 5175.34699 1.5454831 0.0092304
 5180.52406 1.5482994 0.0091541
 5185.70113 1.5444551 0.0089860
 5190.89405 1.5479670 0.0088438
 5196.08697 1.5521187 0.0086493
 5201.27989 1.5586206 0.0085643
 5206.48865 1.5592026 0.0086432
 5211.68119 1.5584172 0.0089392
 5216.90580 1.5675834 0.0088770
 5222.11457 1.5765187 0.0086429
 5227.33918 1.5800120 0.0086639
 5232.56380 1.5834056 0.0086656
 5237.80387 1.5873663 0.0086703
 5243.04433 1.5868183 0.0087466
 5248.28479 1.5869571 0.0086877
 5253.52526 1.5822841 0.0086620
 5258.78118 1.5862747 0.0086101
 5264.03749 1.5807981 0.0085484
 5269.30964 1.5830406 0.0085036
 5274.58180 1.5714186 0.0084471
 5279.85357 1.5587636 0.0084188
 5285.12573 1.5439236 0.0084052
 5290.41373 1.5348359 0.0084941
 5295.70135 1.5226531 0.0084762
 5301.00520 1.5131137 0.0084331
 5306.30866 1.5070221 0.0084301
 5311.61251 1.5043626 0.0083704
 5316.91637 1.5044217 0.0083690
 5322.23568 1.5123338 0.0083590
 5327.55538 1.5140656 0.0083455
 5332.89054 1.5099643 0.0083146
 5338.22608 1.5102205 0.0082743
 5343.56124 1.5219877 0.0082216
 5348.91263 1.5240872 0.0081165
 5354.26364 1.5296694 0.0080471
 5359.61504 1.5352994 0.0079628
 5364.96604 1.5402496 0.0078901
 5370.33328 1.5390472 0.0078343
 5375.70014 1.5293260 0.0078195
 5381.08284 1.5291446 0.0077605
 5386.46593 1.5224041 0.0077725
 5391.84863 1.5117013 0.0077616
 5397.24756 1.5033153 0.0076992
 5402.63027 1.4944059 0.0076829
 5408.04466 1.4908501 0.0077220
 5413.44360 1.4784960 0.0077580
 5418.85799 1.4678717 0.0078221
 5424.28824 1.4593648 0.0078615
 5429.70302 1.4454867 0.0080309
 5435.13326 1.4272128 0.0081274
 5440.56351 1.4219689 0.0080720
 5446.00960 1.4183758 0.0081314
 5451.45608 1.4085968 0.0082511
 5456.91801 1.4081134 0.0084220
 5462.36411 1.4028155 0.0085997
 5467.82604 1.4015412 0.0087971
 5473.30383 1.3972025 0.0089970
 5478.76616 1.4040532 0.0091666
 5484.24394 1.4079782 0.0092235
 5489.73757 1.4008876 0.0090965
 5495.23121 1.3973318 0.0089443
 5500.72484 1.3942086 0.0087424
 5506.21847 1.3957753 0.0085047
 5511.72796 1.4004084 0.0082657
 5517.23744 1.3968076 0.0080606
 5522.76315 1.3944299 0.0079172
 5528.28848 1.3979554 0.0078247
 5533.81381 1.3976680 0.0079166
 5539.33914 1.3925524 0.0078501
 5544.88031 1.3940622 0.0077289
 5550.42149 1.3911858 0.0076480
 5555.97851 1.3848710 0.0076248
 5561.53553 1.3760231 0.0075702
 5567.09255 1.3672386 0.0075090
 5572.66504 1.3521001 0.0074890
 5578.23791 1.3376378 0.0074320
 5583.81078 1.3273427 0.0073687
 5589.39950 1.3073915 0.0073245
 5594.98821 1.2839417 0.0072650
 5600.59278 1.2652546 0.0071807
 5606.18150 1.2426357 0.0071561
 5611.78606 1.2232741 0.0071208
 5617.40609 1.2010756 0.0070912
 5623.02650 1.1775362 0.0070751
 5628.64691 1.1600575 0.0070666
 5634.26733 1.1471761 0.0070590
 5639.90359 1.1306944 0.0070133
 5645.53946 1.1143683 0.0070126
 5651.19157 1.1087589 0.0070044
 5656.84367 1.1001896 0.0069953
 5662.51124 1.0951242 0.0070284
 5668.16335 1.0852021 0.0070138
 5673.83130 1.0797368 0.0069501
 5679.51472 1.0717607 0.0069433
 5685.18267 1.0754929 0.0069297
 5690.86648 1.0835429 0.0069160
 5696.56574 1.0864110 0.0069121
 5702.26539 1.0880557 0.0068698
 5707.96504 1.0932907 0.0068639
 5713.68015 1.0936850 0.0068960
 5719.37980 1.0892240 0.0068883
 5725.11075 1.0905346 0.0068311
 5730.82625 1.0871030 0.0068111
 5736.55721 1.0859061 0.0067952
 5742.30440 1.0830935 0.0067753
 5748.03536 1.0844610 0.0067528
 5753.78255 1.0874598 0.0067368
 5759.54520 1.0962110 0.0067258
 5765.30824 1.0995363 0.0067249
 5771.07089 1.1088994 0.0067246
 5776.84978 1.1141242 0.0066829
 5782.61243 1.1218917 0.0066841
 5788.40678 1.1363651 0.0067286
 5794.18567 1.1520439 0.0067227
 5799.98001 1.1625600 0.0066819
 5805.79021 1.1616557 0.0066963
 5811.58494 1.1687554 0.0067006
 5817.41098 1.1747617 0.0067022
 5823.22118 1.1817538 0.0066988
 5829.04761 1.1818664 0.0067033
 5834.87365 1.1811309 0.0066935
 5840.71554 1.1759102 0.0067321
 5846.54158 1.1644500 0.0068268
 5852.39970 1.1645387 0.0068784
 5858.24159 1.1610452 0.0068975
 5864.11518 1.1550231 0.0069455
 5869.97291 1.1559126 0.0070330
 5875.84650 1.1536239 0.0070086
 5881.72047 1.1572521 0.0070101
 5887.59405 1.1549253 0.0071918
 5893.48348 1.1596681 0.0070760
 5899.38876 1.1574717 0.0070081
 5905.27820 1.1546454 0.0070155
 5911.18347 1.1511118 0.0070393
 5917.10460 1.1433994 0.0071518
 5923.00988 1.1493089 0.0072707
 5928.94685 1.1514812 0.0074198
 5934.86798 1.1520705 0.0076138
 5940.80495 1.1370425 0.0077058
 5946.74193 1.1243168 0.0078029
 5952.69475 1.1124781 0.0078030
 5958.64757 1.0895767 0.0077251
 5964.60039 1.0809734 0.0075776
 5970.56906 1.0718426 0.0073556
 5976.53773 1.0607929 0.0071903
 5982.52224 1.0467552 0.0070159
 5988.49091 1.0343332 0.0068298
 5994.49128 1.0217606 0.0067901
 6000.47579 1.0089517 0.0068524
 6006.47577 1.0031954 0.0066639
 6012.49198 0.9963403 0.0065983
 6018.50819 0.9922936 0.0065967
 6024.52440 0.9914627 0.0065551
 6030.54061 0.9921808 0.0065680
 6036.57228 0.9975522 0.0065687
 6042.62019 0.9998283 0.0065712
 6048.65225 1.0027498 0.0065896
 6054.70015 1.0090425 0.0065911
 6060.76352 1.0149695 0.0066832
 6066.82727 1.0195158 0.0067074
 6072.89102 1.0260868 0.0067650
 6078.95439 1.0335499 0.0068236
 6085.03399 1.0411086 0.0068648
 6091.12944 1.0483135 0.0068962
 6097.22450 1.0484681 0.0069277
 6103.31995 1.0603238 0.0068994
 6109.41501 1.0629107 0.0069572
 6115.52630 1.0615658 0.0069363
 6121.63721 1.0667129 0.0069767
 6127.76435 1.0604150 0.0069359
 6133.89111 1.0505896 0.0069718
 6140.03410 1.0449945 0.0069116
 6146.16086 1.0330665 0.0068924
 6152.31969 1.0212238 0.0068620
 6158.46230 1.0064254 0.0068384
 6164.62113 0.9905928 0.0067950
 6170.79543 0.9769322 0.0067260
 6176.97012 0.9572549 0.0067310
 6183.14441 0.9447790 0.0066531
 6189.31871 0.9305567 0.0066549
 6195.50924 0.9104994 0.0066082
 6201.71524 0.8973951 0.0066271
 6207.90538 0.8913159 0.0065877
 6214.12761 0.8771882 0.0065612
 6220.33360 0.8736303 0.0065366
 6226.55544 0.8647143 0.0065450
 6232.77767 0.8540807 0.0066012
 6239.01536 0.8476974 0.0066936
 6245.25304 0.8360629 0.0067681
 6251.50658 0.8367620 0.0068990
 6257.74465 0.8374853 0.0069341
 6264.01404 0.8307570 0.0069864
 6270.26757 0.8383590 0.0069932
 6276.53695 0.8470588 0.0069425
 6282.82218 0.8535119 0.0068743
 6289.10741 0.8594413 0.0067750
 6295.39264 0.8617601 0.0066523
 6301.69411 0.8722436 0.0065444
 6307.99518 0.8782756 0.0064398
 6314.29626 0.8809363 0.0063587
 6320.61319 0.8900917 0.0063567
 6326.93011 0.8966345 0.0063064
 6333.26288 0.9012492 0.0063375
 6339.59565 0.9054053 0.0063276
 6345.92843 0.9100479 0.0062987
 6352.27705 0.9116501 0.0063482
 6358.62567 0.9196038 0.0063855
 6364.99013 0.9272454 0.0065124
 6371.35460 0.9401557 0.0066584
 6377.73453 0.9425528 0.0067559
 6384.09899 0.9485771 0.0068956
 6390.49515 0.9601980 0.0069421
 6396.89132 0.9689094 0.0069764
 6403.28748 0.9714015 0.0069744
 6409.68364 0.9736357 0.0069377
 6416.09526 0.9741175 0.0068631
 6422.50727 0.9768191 0.0067615
 6428.93513 0.9732893 0.0066060
 6435.36298 0.9661353 0.0065337
 6441.79084 0.9565464 0.0064432
 6448.23416 0.9456820 0.0063767
 6454.69371 0.9344168 0.0064061
 6461.13741 0.9217079 0.0064094
 6467.61242 0.9094998 0.0063839
 6474.07198 0.8942254 0.0064059
 6480.54737 0.8863327 0.0064115
 6487.02277 0.8739375 0.0063669
 6493.51325 0.8645499 0.0063274
 6500.00449 0.8525531 0.0063498
 6506.51197 0.8400688 0.0063476
 6513.01868 0.8276443 0.0063140
 6519.52538 0.8107324 0.0063301
 6526.04833 0.7919270 0.0063528
 6532.57127 0.7727411 0.0063755
 6539.10967 0.7500224 0.0063692
 6545.64807 0.7258457 0.0064231
 6552.18647 0.7054297 0.0064082
 6558.74111 0.6810908 0.0063569
 6565.31120 0.6589756 0.0062814
 6571.86584 0.6429450 0.0062501
 6578.45217 0.6269044 0.0062104
 6585.02226 0.6129646 0.0061855
 6591.60859 0.6055912 0.0061660
 6598.19415 0.6052668 0.0061655
 6604.79594 0.6101322 0.0061794
 6611.39851 0.6108921 0.0061614
 6618.01576 0.6155798 0.0061751
 6624.63378 0.6261577 0.0061769
 6631.26727 0.6298224 0.0061663
 6637.88529 0.6339526 0.0061814
 6644.53424 0.6380205 0.0062110
 6651.16773 0.6368892 0.0062615
 6657.81745 0.6377882 0.0063147
 6664.48263 0.6361623 0.0063815
 6671.14781 0.6372828 0.0064166
 6677.81299 0.6422746 0.0064977
 6684.49440 0.6465026 0.0065638
 6691.17505 0.6495234 0.0066712
 6697.87192 0.6598190 0.0068138
 6704.56880 0.6662503 0.0069523
 6711.28191 0.6776305 0.0071010
 6717.99424 0.6947772 0.0072420
 6724.70735 0.7027320 0.0073205
 6731.43592 0.7152615 0.0074467
 6738.16449 0.7266805 0.0075670
 6744.90852 0.7382800 0.0076753
 6751.65333 0.7489478 0.0077705
 6758.39736 0.7528614 0.0078399
 6765.15762 0.7565389 0.0079156
 6771.91789 0.7575908 0.0079968
 6778.69439 0.7549616 0.0081094
 6785.47011 0.7573439 0.0082598
 6792.26207 0.7603811 0.0084000
 6799.05403 0.7665612 0.0085622
 6805.84599 0.7721696 0.0087793
 6812.65341 0.7843784 0.0088687
 6819.47707 0.7867771 0.0090359
 6826.28526 0.7965126 0.0092388
 6833.12438 0.8014963 0.0094603
 6839.94803 0.8134719 0.0096780
 6846.78715 0.8208517 0.0099158
 6853.64250 0.8253253 0.0101058
 6860.49785 0.8359398 0.0102452
 6867.35320 0.8373660 0.0103460
 6874.22401 0.8357182 0.0104646
 6881.09482 0.8349406 0.0104972
 6887.98186 0.8317681 0.0104200
 6894.86890 0.8311232 0.0104451
 6901.75595 0.8243710 0.0104799
 6908.65845 0.8235304 0.0103316
 6915.57719 0.8261124 0.0103829
 6922.47970 0.8258386 0.0105104
 6929.41390 0.8242351 0.0109065
 6936.33264 0.8113251 0.0113049
 6943.26684 0.8042787 0.0113280
 6950.21727 0.7914008 0.0120950
 6957.16770 0.7789902 0.0119425
 6964.13360 0.7686585 0.0120936
 6971.08403 0.7512164 0.0117070
 6978.06539 0.7282905 0.0115189
 6985.04752 0.7095076 0.0109031
 6992.02964 0.6898848 0.0112182
 6999.01100 0.6679506 0.0110732
 7006.02482 0.6473395 0.0113257
 7013.02241 0.6276635 0.0116026
 7020.03624 0.6059153 0.0115361
 7027.06552 0.5932369 0.0117300
 7034.07934 0.5782236 0.0114154
 7041.12409 0.5669376 0.0113978
 7048.15337 0.5604351 0.0113934
 7055.21435 0.5591600 0.0109734
 7062.25987 0.5546821 0.0109186
 7069.33708 0.5457406 0.0108563
 7076.39806 0.5509123 0.0109190
 7083.47450 0.5538758 0.0110093
 7090.56717 0.5580074 0.0106908
 7097.64439 0.5652671 0.0107810
 7104.75252 0.5679201 0.0108910
 7111.84520 0.5726069 0.0109157
 7118.96956 0.5851970 0.0110978
 7126.07847 0.5924728 0.0111490
 7133.20284 0.6035581 0.0112108
 7140.34267 0.6127681 0.0114587
 7147.48327 0.6208228 0.0115088
 7154.63934 0.6310768 0.0115351
 7161.77917 0.6455359 0.0113868
 7168.95146 0.6572691 0.0112862
 7176.12299 0.6737728 0.0112896
 7183.29528 0.6875524 0.0110974
 7190.48227 0.7069218 0.0108966
 7197.67003 0.7225938 0.0105396
 7204.87402 0.7400337 0.0103764
 7212.07724 0.7541230 0.0102631
 7219.28123 0.7673044 0.0101959
 7226.49991 0.7847428 0.0101624
 7233.73560 0.8002227 0.0102246
 7240.97051 0.8111026 0.0102483
 7248.20620 0.8200394 0.0102870
 7255.45657 0.8250681 0.0103344
 7262.70772 0.8238213 0.0103898
 7269.97510 0.8268862 0.0105070
 7277.24171 0.8245683 0.0105082
 7284.52455 0.8292528 0.0104877
 7291.80662 0.8333718 0.0104535
 7299.10570 0.8345699 0.0102065
 7306.40400 0.8312593 0.0103534
 7313.70230 0.8362047 0.0103009
 7321.01684 0.8375264 0.0102688
 7328.34684 0.8394128 0.0102556
 7335.67761 0.8350059 0.0101738
 7343.00761 0.8349336 0.0104466
 7350.35384 0.8337554 0.0104811
 7357.69930 0.8360178 0.0105277
 7365.06099 0.8305387 0.0104915
 7372.42346 0.8262031 0.0106819
 7379.80061 0.8210902 0.0113359
 7387.17854 0.8098997 0.0116340
 7394.57193 0.7929182 0.0119437
 7401.94985 0.7805841 0.0120358
 7409.35870 0.7750887 0.0122252
 7416.76832 0.7638956 0.0126968
 7424.19340 0.7557604 0.0126336
 7431.61849 0.7527234 0.0121061
 7439.04357 0.7470312 0.0118786
 7446.48489 0.7401257 0.0116520
 7453.92620 0.7372488 0.0113121
 7461.38298 0.7294161 0.0107290
 7468.83976 0.7265351 0.0104963
 7476.31199 0.7199822 0.0103522
 7483.80047 0.7225663 0.0104370
 7491.27348 0.7131143 0.0100368
 7498.76195 0.7087870 0.0099187
 7506.26666 0.7032654 0.0098021
 7513.77059 0.7061904 0.0098236
 7521.29076 0.7039646 0.0095045
 7528.81092 0.6997557 0.0094240
 7536.34732 0.6976733 0.0093464
 7543.86749 0.6995556 0.0092738
 7551.41935 0.7013213 0.0091214
 7558.97044 0.7016467 0.0090433
 7566.53853 0.7052115 0.0089678
 7574.10586 0.7069212 0.0089019
 7581.67395 0.7048988 0.0087619
 7589.25751 0.7048033 0.0086888
 7596.84107 0.7022979 0.0086252
 7604.44008 0.6993995 0.0085726
 7612.03910 0.6962553 0.0084738
 7619.65435 0.6879997 0.0084230
 7627.28584 0.6843372 0.0083739
 7634.91655 0.6773475 0.0081458
 7642.54726 0.6721537 0.0082692
 7650.17874 0.6684065 0.0082624
 7657.84115 0.6663088 0.0082738
 7665.48810 0.6636436 0.0081423
 7673.15050 0.6622879 0.0083266
 7680.82914 0.6632305 0.0083360
 7688.50779 0.6656389 0.0083417
 7696.20189 0.6739198 0.0081521
 7703.89599 0.6757863 0.0083014
 7711.60632 0.6788456 0.0082743
 7719.31666 0.6750468 0.0080599
 7727.02699 0.6771958 0.0080061
 7734.76825 0.6770336 0.0080989
 7742.49482 0.6729485 0.0080440
 7750.23608 0.6672665 0.0077934
 7757.99434 0.6605341 0.0077380
 7765.75183 0.6529039 0.0078358
 7773.50932 0.6461393 0.0076180
 7781.29851 0.6412003 0.0075536
 7789.07224 0.6314349 0.0076400
 7796.86142 0.6260805 0.0076131
 7804.66684 0.6181477 0.0074545
 7812.45603 0.6147569 0.0074412
 7820.27691 0.6113779 0.0075995
 7828.09779 0.6112484 0.0074809
 7835.91867 0.6099917 0.0074765
 7843.75578 0.6092318 0.0074959
 7851.60836 0.6050406 0.0075601
 7859.46093 0.6039715 0.0075233
 7867.31351 0.5989744 0.0074770
 7875.18232 0.5950493 0.0075308
 7883.06659 0.5891093 0.0075822
 7890.95086 0.5843223 0.0076516
 7898.83513 0.5787518 0.0077257
 7906.73486 0.5704201 0.0078720
 7914.63537 0.5683777 0.0079100
 7922.55133 0.5649287 0.0079358
 7930.48276 0.5613436 0.0079183
 7938.41496 0.5618725 0.0078053
 7946.34638 0.5603774 0.0076683
 7954.29404 0.5618419 0.0073618
 7962.24170 0.5695741 0.0073154
 7970.20482 0.5684206 0.0072194
 7978.18418 0.5747433 0.0070268
 7986.16353 0.5811276 0.0071195
 7994.15912 0.5862847 0.0071678
 8002.13847 0.5913801 0.0070439
 8010.14952 0.5953667 0.0071488
 8018.15980 0.5972189 0.0070648
 8026.17085 0.5981269 0.0068491
 8034.19813 0.5997112 0.0069068
 8042.24010 0.5994000 0.0068380
 8050.28285 0.6002650 0.0066434
 8058.32559 0.6013090 0.0065914
 8066.38380 0.6003659 0.0066392
 8074.45823 0.5980088 0.0064896
 8082.53267 0.5944475 0.0064869
 8090.60711 0.5933235 0.0065762
 8098.69701 0.5868528 0.0064420
 8106.80315 0.5825360 0.0064273
 8114.90928 0.5802807 0.0065247
 8123.03087 0.5770192 0.0063907
 8131.15247 0.5743113 0.0063908
 8139.27406 0.5744902 0.0065086
 8147.42813 0.5733883 0.0063791
 8155.56518 0.5700377 0.0063647
 8163.71924 0.5594974 0.0063441
 8171.88799 0.5577801 0.0063242
 8180.05752 0.5529693 0.0063091
 8188.24250 0.5518737 0.0062639
 8196.42749 0.5488367 0.0062457
 8204.62870 0.5466511 0.0062339
 8212.82915 0.5425898 0.0062147
 8221.04660 0.5417897 0.0061994
 8229.26328 0.5396605 0.0061890
 8237.49542 0.5386865 0.0061511
 8245.72833 0.5379209 0.0061339
 8253.97671 0.5396594 0.0059909
 8262.24131 0.5403144 0.0060607
 8270.48969 0.5444008 0.0060181
 8278.76976 0.5435900 0.0058356
 8287.04982 0.5434955 0.0058883
 8295.32989 0.5435269 0.0058490
 8303.62542 0.5429551 0.0056775
 8311.93718 0.5381888 0.0057313
 8320.24895 0.5349004 0.0055953
 8328.56071 0.5318987 0.0055714
 8336.88871 0.5321134 0.0056509
 8345.23217 0.5324208 0.0055300
 8353.57562 0.5281624 0.0056202
 8361.93454 0.5244818 0.0056149
 8370.29424 0.5201402 0.0055061
 8378.66862 0.5190752 0.0056097
 8387.04377 0.5155284 0.0055187
 8395.43515 0.5151747 0.0055132
 8403.82577 0.5129882 0.0056221
 8412.23262 0.5086873 0.0055250
 8420.63946 0.5081944 0.0055197
 8429.06177 0.5056105 0.0055224
 8437.50031 0.5021024 0.0055039
 8445.93886 0.4962643 0.0055927
 8454.37740 0.4894628 0.0054595
 8462.83140 0.4867529 0.0054290
 8471.30164 0.4807429 0.0053847
 8479.77188 0.4781058 0.0053434
 8488.25757 0.4745053 0.0053978
 8496.72781 0.4722542 0.0052488
 8505.22974 0.4689730 0.0052193
 8513.74714 0.4652681 0.0051924
 8522.24907 0.4620875 0.0051444
 8530.78192 0.4601497 0.0051016
 8539.30009 0.4613426 0.0050669
 8547.84918 0.4588646 0.0050654
 8556.39826 0.4614764 0.0051156
 8564.94735 0.4578769 0.0051130
 8573.51267 0.4523926 0.0050315
 8582.09345 0.4555192 0.0051506
 8590.67424 0.4549420 0.0051760
 8599.27125 0.4572885 0.0052657
 8607.86750 0.4541087 0.0053007
 8616.48075 0.4522617 0.0052713
 8625.09322 0.4528435 0.0054300
 8633.72116 0.4513687 0.0053715
 8642.34987 0.4513881 0.0055085
 8650.99404 0.4509512 0.0055251
 8659.63822 0.4497030 0.0054654
 8668.29862 0.4482038 0.0055945
 8676.97449 0.4505296 0.0054915
 8685.65036 0.4494144 0.0055531
 8694.34168 0.4482075 0.0054348
 8703.03378 0.4466922 0.0054087
 8711.74135 0.4463812 0.0054886
 8720.44891 0.4492113 0.0053940
 8729.17193 0.4455057 0.0054653
 8737.89573 0.4475372 0.0053402
 8746.63498 0.4508130 0.0053999
 8755.37424 0.4505837 0.0052707
 8764.12896 0.4510988 0.0052474
 8772.89991 0.4490731 0.0051938
 8781.67086 0.4461904 0.0051717
 8790.45727 0.4454724 0.0051167
 8799.24445 0.4445064 0.0050788
 8808.04710 0.4438641 0.0051177
 8816.86521 0.4435750 0.0049924
 8825.66785 0.4404116 0.0049714
 8834.50219 0.4374122 0.0049060
 8843.33576 0.4353885 0.0048748
 8852.18634 0.4286150 0.0048286
 8861.03614 0.4253833 0.0048051
 8869.88594 0.4193271 0.0047478
 8878.76821 0.4193418 0.0047141
 8887.64970 0.4174060 0.0045914
 8896.53120 0.4167209 0.0046389
 8905.42893 0.4146305 0.0045288
 8914.32666 0.4126844 0.0045693
 8923.23985 0.4122273 0.0044687
 8932.16928 0.4095647 0.0045303
 8941.09793 0.4099812 0.0045245
 8950.04359 0.4105294 0.0045227
 8959.00393 0.4124187 0.0045224
 8967.94959 0.4136159 0.0045349
 8976.92617 0.4128247 0.0045484
 8985.90275 0.4134054 0.0044938
 8994.87933 0.4135416 0.0045982
 9003.88761 0.4138007 0.0045537
 9012.88042 0.4138342 0.0046647
 9021.90416 0.4142994 0.0046427
 9030.92867 0.4142725 0.0047651
 9039.95318 0.4110456 0.0046761
 9048.99315 0.4107944 0.0047881
 9058.04858 0.4070409 0.0047801
 9067.10479 0.4056831 0.0049456
 9076.17645 0.4018817 0.0049539
 9085.24811 0.4005172 0.0051166
 9094.33524 0.3979401 0.0051485
 9103.42314 0.3960780 0.0053643
 9112.52650 0.3958294 0.0054082
 9121.64532 0.3944889 0.0054771
 9130.76491 0.3903242 0.0055757
 9139.89997 0.3891543 0.0056060
 9149.03502 0.3877046 0.0056785
 9158.18554 0.3856065 0.0056519
 9167.33683 0.3864895 0.0056336
 9176.51904 0.3850863 0.0056293
 9185.68579 0.3845856 0.0056699
 9194.88423 0.3820746 0.0056759
 9204.06644 0.3791964 0.0056405
 9213.28112 0.3750236 0.0055155
 9222.49502 0.3707513 0.0055648
 9231.70893 0.3664690 0.0054259
 9240.93907 0.3635683 0.0055149
 9250.18544 0.3627164 0.0053474
 9259.43104 0.3631008 0.0053413
 9268.69287 0.3589488 0.0052005
 9277.97017 0.3573047 0.0052026
 9287.24746 0.3550596 0.0050559
 9296.52476 0.3554859 0.0050754
 9305.83452 0.3538570 0.0049502
 9315.12727 0.3550036 0.0049941
 9324.45250 0.3521911 0.0049028
 9333.77772 0.3488705 0.0049108
 9343.10294 0.3484281 0.0048249
 9352.45909 0.3467378 0.0048552
 9361.80055 0.3476512 0.0048787
 9371.17293 0.3479387 0.0049096
 9380.54530 0.3493727 0.0049391
 9389.91768 0.3483146 0.0049800
 9399.30630 0.3481698 0.0051063
 9408.71037 0.3486494 0.0050459
 9418.11444 0.3504090 0.0051671
 9427.53398 0.3522496 0.0051335
 9436.97052 0.3549675 0.0052032
 9446.40629 0.3533771 0.0052152
 9455.84206 0.3542773 0.0052413
 9465.30952 0.3535271 0.0052850
 9474.77698 0.3549481 0.0054065
 9484.24445 0.3532745 0.0054229
 9493.72737 0.3480426 0.0054120
 9503.22653 0.3417252 0.0054604
 9512.72569 0.3373799 0.0055813
 9522.24108 0.3318098 0.0056373
 9531.77193 0.3285812 0.0059252
 9541.30278 0.3234010 0.0062866
 9550.84910 0.3166590 0.0065122
 9560.39618 0.3113937 0.0068919
 9569.95873 0.3043568 0.0068574
 9579.52051 0.3016933 0.0070771
 9589.09929 0.3006982 0.0069153
 9598.69353 0.3012116 0.0069186
 9608.28777 0.2974610 0.0066810
 9617.89747 0.2987872 0.0065147
 9627.52341 0.2981271 0.0060462
 9637.14935 0.2989856 0.0057206
 9646.79075 0.3016121 0.0056947
 9656.43215 0.3061505 0.0056155
 9666.08978 0.3041275 0.0055536
 9675.74741 0.2999919 0.0053983
 9685.43674 0.2955992 0.0054482
 9695.12529 0.2958454 0.0054769
 9704.81462 0.2949385 0.0055447
 9714.51940 0.2932211 0.0056781
 9724.24043 0.2912174 0.0055959
 9733.96145 0.2919424 0.0056115
 9743.69793 0.2909290 0.0056103
 9753.43441 0.2889951 0.0055905
 9763.18713 0.2881570 0.0056641
 9772.95530 0.2859279 0.0055899
 9782.72348 0.2814749 0.0056804
 9792.50789 0.2797795 0.0057374
 9802.30776 0.2835234 0.0057937
 9812.10764 0.2852623 0.0057127
 9821.92374 0.2851216 0.0058184
 9831.73908 0.2844163 0.0059640
 9841.57064 0.2840125 0.0060573
 9851.41844 0.2795601 0.0061487
 9861.26624 0.2789486 0.0061416
 9871.12950 0.2797831 0.0062779
 9881.00823 0.2837800 0.0063556
 9890.87149 0.2831389 0.0062943
 9900.76644 0.2807353 0.0064816
 9910.67763 0.2785811 0.0064005
 9920.58805 0.2800001 0.0065709
 9930.51470 0.2761448 0.0066423
 9940.44135 0.2736301 0.0064921
 9950.38347 0.2681929 0.0065272
 9960.32635 0.2672822 0.0064723
 9970.28470 0.2635179 0.0064509
 9980.25850 0.2680544 0.0065363
 9990.24854 0.2692986 0.0064363
 10000.23858 0.2709143 0.0064658
 10010.22863 0.2656026 0.0065409
 10020.25036 0.2653724 0.0063977
 10030.27210 0.2696694 0.0063645
 10040.29306 0.2722483 0.0063677
 10050.33103 0.2761534 0.0064005
 10060.38446 0.2756450 0.0062774
 10070.45335 0.2765402 0.0062125
 10080.52224 0.2757969 0.0060962
 10090.59113 0.2733733 0.0061043
 10100.69249 0.2705787 0.0059352
 10110.79308 0.2688173 0.0058218
 10120.90989 0.2656550 0.0057632
 10131.02594 0.2669313 0.0056402
 10141.15822 0.2671606 0.0055733
 10151.30674 0.2685793 0.0054658
 10161.43902 0.2682706 0.0054722
 10171.60377 0.2657845 0.0054252
 10181.78320 0.2647139 0.0053345
 10191.96341 0.2667559 0.0054180
 10202.15908 0.2652832 0.0053929
 10212.35475 0.2654789 0.0053098
 10222.58212 0.2679300 0.0054126
 10232.79402 0.2688884 0.0054664
 10243.02139 0.2695926 0.0054611
 10253.28045 0.2693708 0.0055887
 10263.52327 0.2721044 0.0055995
 10273.78233 0.2737420 0.0057332
 10284.05762 0.2719558 0.0059291
 10294.34838 0.2720784 0.0059183
 10304.63913 0.2727984 0.0059901
 10314.94535 0.2760306 0.0060698
 10325.26780 0.2801637 0.0060775
 10335.59025 0.2824646 0.0060801
 10345.92893 0.2848974 0.0061667
 10356.26684 0.2835106 0.0062396
 10366.62098 0.2811048 0.0064590
 10376.99136 0.2813682 0.0067598
 10387.37643 0.2809011 0.0072332
 10397.76227 0.2779678 0.0082274
 10408.16434 0.2758099 0.0071631
 10418.56564 0.2747255 0.0074665
 10428.98317 0.2712293 0.0080522
 10439.41617 0.2689713 0.0087977
 10449.86540 0.2701528 0.0096621
 10460.31463 0.2666396 0.0103654
 10470.76385 0.2614692 0.0109387
 10481.24400 0.2524203 0.0105703
 10491.72493 0.2463211 0.0099107
 10502.22131 0.2473520 0.0095294
 10512.71847 0.2472912 0.0090388
 10523.23031 0.2418466 0.0084691
 10533.75916 0.2383507 0.0082720
 10544.28724 0.2381955 0.0081857
 10554.83078 0.2386342 0.0098084
 10565.39133 0.2369212 0.0088855
 10575.95110 0.2342319 0.0083581
 10586.52634 0.2317532 0.0080213
 10597.11781 0.2330883 0.0077424
 10607.71005 0.2325666 0.0074282
 10618.31698 0.2317149 0.0073064
 10628.94014 0.2311819 0.0073371
 10639.56330 0.2316371 0.0071887
 10650.21816 0.2338525 0.0071031
 10660.85756 0.2315987 0.0069725
 10671.52788 0.2304998 0.0068986
 10682.19897 0.2281440 0.0067576
 10692.88552 0.2249174 0.0067068
 10703.57207 0.2220077 0.0066974
 10714.27409 0.2207387 0.0066546
 10724.99234 0.2194849 0.0065741
 10735.71058 0.2216851 0.0066174
 10746.46053 0.2265514 0.0066887
 10757.19501 0.2263780 0.0066913
 10767.96041 0.2213886 0.0066517
 10778.72659 0.2200826 0.0067099
 10789.50745 0.2213264 0.0068253
 10800.30532 0.2211727 0.0068829
 10811.10242 0.2212437 0.0069786
 10821.91575 0.2245266 0.0071400
 10832.72908 0.2225512 0.0072150
 10843.55788 0.2231221 0.0074610
 10854.40290 0.2214230 0.0077306
 10865.26339 0.2171757 0.0078579
 10876.12465 0.2127169 0.0079481
 10887.00060 0.2112335 0.0078610
 10897.89355 0.2071852 0.0078958
 10908.78574 0.2043467 0.0080293
 10919.70961 0.2098116 0.0080066
 10930.61803 0.2123838 0.0078057
 10941.55737 0.2152704 0.0077228
 10952.49748 0.2132311 0.0077140
 10963.43759 0.2075355 0.0078230
 10974.40862 0.2036946 0.0078192
 10985.38043 0.2028021 0.0080251
 10996.36770 0.1998586 0.0083110
 11007.37120 0.1986528 0.0085160
 11018.37392 0.1991099 0.0085642
 11029.39288 0.2014110 0.0087094
 11040.42808 0.1983907 0.0089021
 11051.46328 0.1931600 0.0090897
 11062.51393 0.1895463 0.0092200
 11073.58005 0.1895479 0.0091503
 11084.66240 0.1869366 0.0092268
 11095.74475 0.1836136 0.0091902
 11106.82710 0.1789091 0.0092192
 11117.94115 0.1818724 0.0093845
 11129.07065 0.1875399 0.0092805
 11140.18470 0.1849569 0.0095081
 11151.33044 0.1825136 0.0095483
 11162.49242 0.1861515 0.0095623
 11173.63816 0.1849398 0.0095172
 11184.81559 0.1817621 0.0093947
 11196.00849 0.1808662 0.0095364
 11207.20138 0.1795639 0.0099380
 11218.41051 0.1821315 0.0099560
 11229.63510 0.1879984 0.0097927
 11240.86047 0.1905798 0.0095808
 11252.10129 0.1910571 0.0098434
 11263.35758 0.1893630 0.0101949
 11274.61387 0.1893135 0.0106403
 11285.88638 0.1888107 0.0112990
 11297.17437 0.1844563 0.0101792
 11308.47858 0.1798077 0.0100887
 11319.78279 0.1797369 0.0104163
 11331.10247 0.1821733 0.0108772
 11342.43761 0.1802838 0.0112752
 11353.77352 0.1764005 0.0117926
 11365.14112 0.1811251 0.0123152
 11376.50795 0.1888519 0.0126335
 11387.87555 0.1806997 0.0121970
 11399.25862 0.1805105 0.0117678
 11410.67338 0.1820099 0.0113831
 11422.07268 0.1745494 0.0109235
 11433.50290 0.1691465 0.0104314
 11444.93389 0.1700154 0.0101426
 11456.38035 0.1671363 0.0100839
 11467.84303 0.1634761 0.0117119
 11479.30495 0.1634301 0.0110763
 11490.78310 0.1664326 0.0106133
 11502.27748 0.1645761 0.0102466
 11513.78655 0.1640479 0.0099567
 11525.29640 0.1590615 0.0098904
 11536.82248 0.1588840 0.0099634
 11548.36401 0.1646376 0.0100340
 11559.90555 0.1724872 0.0101073
 11571.46255 0.1742436 0.0102870
 11583.03579 0.1757174 0.0104387
 11594.62448 0.1715954 0.0104478
 11606.21395 0.1707175 0.0106724
 11617.81888 0.1699288 0.0108409
 11629.43927 0.1609130 0.0110356
 11641.07589 0.1515846 0.0112993
 11652.71174 0.1463406 0.0116833
 11664.36460 0.1449757 0.0121916
 11676.03291 0.1399851 0.0128145
 11687.71669 0.1413866 0.0130794
 11699.40047 0.1366382 0.0138190
 11711.10048 0.1349056 0.0145867
 11722.79972 0.1233605 0.0153563
 11734.53143 0.1148918 0.0160826
 11746.26314 0.1092844 0.0166736
 11758.01031 0.1125685 0.0171083
 11769.77371 0.1271717 0.0172538
 11781.53634 0.1310088 0.0171920
 11793.31520 0.1302687 0.0170846
 11805.11030 0.1350328 0.0169250
 11816.92086 0.1217745 0.0169459
 11828.74765 0.1190272 0.0169729
 11840.57367 0.1130957 0.0169918
 11852.41592 0.1069603 0.0169998
 11864.25817 0.1073794 0.0171157
 11876.13212 0.1065825 0.0171758
 11888.00607 0.1092762 0.0174181
 11899.89625 0.1058662 0.0181044
 11911.80189 0.1009455 0.0181475
 11923.70753 0.0974358 0.0179822
 11935.62864 0.1061412 0.0176638
 11947.56597 0.1012433 0.0176082
 11959.51877 0.1002951 0.0175853
 11971.47234 0.1071922 0.0175877
 11983.44138 0.1186380 0.0174022
 11995.42587 0.1259958 0.0173514
 12007.42659 0.1266143 0.0170422
 12019.42732 0.1237655 0.0170418
 12031.45974 0.1239868 0.0170799
 12043.49139 0.1139066 0.0167758
 12055.54005 0.1080974 0.0167427
 12067.58793 0.1125615 0.0167028
 12079.65204 0.1158928 0.0165363
 12091.73162 0.1175383 0.0164588
 12103.82743 0.1073113 0.0165146
 12115.93870 0.1003053 0.0163933
 12128.04998 0.0954395 0.0164678
 12140.17748 0.0884876 0.0165181
 12152.32045 0.0861291 0.0165349
 12164.46342 0.0844505 0.0168048
 12176.63808 0.0916555 0.0169954
 12188.81274 0.0968345 0.0168147
 12201.00363 0.0952943 0.0168321
 12213.20999 0.0858807 0.0169716
 12225.41635 0.0798932 0.0170547
 12237.65440 0.0706529 0.0170378
 12249.87699 0.0663419 0.0172267
 12262.13050 0.0590333 0.0174397
 12274.40024 0.0635506 0.0172476
 12286.66999 0.0605762 0.0173915
 12298.95597 0.0545518 0.0175425
 12311.25741 0.0654898 0.0173915
 12323.57431 0.0643770 0.0174487
 12335.89121 0.0563293 0.0176031
 12348.22435 0.0547360 0.0176590
 12360.57372 0.0620884 0.0176195
 12372.93855 0.0663778 0.0178377
 12385.30338 0.0683127 0.0180262
 12397.69913 0.0743296 0.0180718
 12410.09565 0.0696789 0.0183608
 12422.50841 0.0718926 0.0186350
 12434.93586 0.0886067 0.0189285
 12447.36408 0.1005868 0.0190267
 12459.80776 0.1104174 0.0194729
 12472.28391 0.1241461 0.0200324
 12484.74305 0.1349058 0.0202737
 12497.23466 0.1486342 0.0209815
 12509.72627 0.1546828 0.0215174
 12522.24957 0.1583572 0.0215378
 12534.77210 0.1525204 0.0214228
 12547.29541 0.1497842 0.0216215
 12559.85041 0.1506223 0.0218012
 12572.40463 0.1527838 0.0218234
 12584.97509 0.1483732 0.0218016
 12597.56179 0.1537904 0.0219176
 12610.16394 0.1602944 0.0218340
 12622.76609 0.1565028 0.0217943
 12635.39994 0.1564558 0.0219073
 12648.03379 0.1477723 0.0218094
 12660.68388 0.1401676 0.0219874
 12673.34942 0.1325869 0.0222286
 12686.01496 0.1294960 0.0227320
 12698.71220 0.1127223 0.0232462
 12711.40944 0.0878005 0.0237934
 12724.10668 0.0799353 0.0242792
 12736.83484 0.0604537 0.0251868
 12749.58001 0.0641000 0.0261888
 12762.32440 0.0713439 0.0274856
 12775.10126 0.0678237 0.0294536
 12787.86112 0.0674959 0.0317605
 12800.65344 0.0627389 0.0347018
 12813.46200 0.0585871 0.0384835
 12826.26978 0.0564883 0.0421408
 12839.09380 0.0570563 0.0479224
 12851.93328 0.0533371 0.0543114
 12864.78899 0.0490088 0.0626910
 12877.66017 0.0418625 0.0756404
