# SOURCE  = 'Quimby et al. 2018' /                                                
# OBJECT  = '2011ke  '           /                                                
# Z       = 0.142900 / wavelengths in OBSERVER FRAME (from rest frame x (1+z))
# NORM    =          1.72900E-18 / fluxes divided by norm                         
# CLIPPED =                    1 / galaxy emission lines removed                  
# SMOOTHED=                    1 / spectrum has been smoothed                     
# COLUMN01= 'Wavelength (Angstrom)' /                                             
# COLUMN02= 'Flux Density (erg/s/cm2/A)' /                                        
# COLUMN03= 'Flux Density Uncertainty (erg/s/cm2/A)' /                            
# END                                                                             
# 
# 
# 
# 
# 
# 
# 
# 
# 
# 
 3638.8689  2.8231370  0.4867792
 3642.5133  3.0245378  0.3931759
 3646.1574  3.1243744  0.3476011
 3649.8018  3.1720879  0.2974824
 3653.4462  3.1032505  0.2621439
 3657.1037  3.1351056  0.2332075
 3660.7611  3.1312835  0.2164447
 3664.4186  3.0921059  0.2028847
 3668.0889  3.0560679  0.1959267
 3671.7594  3.1039920  0.1864476
 3675.4300  3.1096630  0.1807534
 3679.1005  3.1304383  0.1734430
 3682.7838  3.0918880  0.1664918
 3686.4675  2.9440536  0.1657232
 3690.1511  2.9559243  0.1600930
 3693.8344  2.9497924  0.1533773
 3697.5311  2.8988693  0.1512693
 3701.2278  2.9714446  0.1465110
 3704.9373  2.9815359  0.1445449
 3708.6340  2.9429822  0.1414657
 3712.3438  2.9965384  0.1382475
 3716.0663  2.9199507  0.1386928
 3719.7761  2.8809607  0.1371711
 3723.4990  2.8879735  0.1340804
 3727.2215  2.9514499  0.1339085
 3730.9443  2.9754050  0.1319680
 3734.6800  2.8444788  0.1296645
 3738.4159  2.7598701  0.1303085
 3742.1518  2.7582910  0.1283351
 3745.9005  2.7286372  0.1289950
 3749.6364  2.7098098  0.1276789
 3753.3851  2.6896138  0.1248846
 3757.1472  2.6379426  0.1251070
 3760.8959  2.6217902  0.1223862
 3764.6580  2.6037157  0.1210866
 3768.4328  2.5802236  0.1215605
 3772.1949  2.5786760  0.1191992
 3775.9697  2.5832121  0.1175473
 3779.7446  2.5579348  0.1172633
 3783.5197  2.5969174  0.1135835
 3787.3076  2.6348999  0.1104284
 3791.0959  2.6836665  0.1087195
 3794.8838  2.6935713  0.1055538
 3798.6848  2.6691196  0.1031767
 3802.4861  2.6765172  0.1020612
 3806.2870  2.7042778  0.0997284
 3810.0880  2.7260830  0.0968332
 3813.9024  2.7321212  0.0952438
 3817.7165  2.7504091  0.0925587
 3821.5305  2.7987313  0.0905167
 3825.3580  2.7954602  0.0896097
 3829.1851  2.7734344  0.0887274
 3833.0123  2.6902919  0.0874493
 3836.8397  2.7041771  0.0884504
 3840.6799  2.7042272  0.0885716
 3844.5201  2.7240646  0.0873037
 3848.3604  2.7608919  0.0882858
 3852.2136  2.7744851  0.0878529
 3856.0673  2.7969246  0.0863051
 3859.9205  2.7962484  0.0867446
 3863.7869  2.7356043  0.0854290
 3867.6402  2.7879169  0.0830563
 3871.5065  2.8558495  0.0825560
 3875.3863  2.8798122  0.0803791
 3879.2657  2.9140141  0.0780108
 3883.1452  2.9269848  0.0769875
 3887.0246  2.9487939  0.0747421
 3890.9171  2.9508698  0.0731732
 3894.7966  2.9739866  0.0730149
 3898.7021  2.9423721  0.0719648
 3902.5947  2.9600358  0.0713368
 3906.5002  2.9352667  0.0715878
 3910.4058  2.9064305  0.0702649
 3914.3114  2.8691800  0.0699204
 3918.2301  2.8597372  0.0706528
 3922.1487  2.8208561  0.0697904
 3926.0674  2.7902133  0.0700824
 3929.9991  2.7511592  0.0703589
 3933.9309  2.7079341  0.0703397
 3937.8626  2.7166431  0.0699202
 3941.7943  2.7258065  0.0692840
 3945.7392  2.7406423  0.0689553
 3949.6840  2.7445693  0.0683761
 3953.6419  2.7397041  0.0681757
 3957.5867  2.6885252  0.0681533
 3961.5445  2.6637578  0.0681069
 3965.5155  2.6710050  0.0679711
 3969.4731  2.7124150  0.0670223
 3973.4440  2.7249594  0.0674641
 3977.4150  2.7146759  0.0669617
 3981.3990  2.7074275  0.0656918
 3985.3831  2.6896579  0.0658962
 3989.3668  2.7281506  0.0651293
 3993.3508  2.7084439  0.0645934
 3997.3479  2.7071655  0.0643956
 4001.3450  2.6940224  0.0636590
 4005.3422  2.7054670  0.0622753
 4009.3520  2.6531131  0.0603883
 4013.3622  2.6213810  0.0601814
 4017.3724  2.5343721  0.0589875
 4021.3953  2.5022295  0.0577548
 4025.4186  2.4912126  0.0576412
 4029.4419  2.4605615  0.0585067
 4033.4648  2.4202456  0.0585084
 4037.5011  2.4149766  0.0591991
 4041.5375  2.4076819  0.0601351
 4045.5866  2.4392345  0.0600649
 4049.6229  2.4336162  0.0604504
 4053.6723  2.4290898  0.0606339
 4057.7345  2.4064581  0.0614142
 4061.7970  2.3543143  0.0604068
 4065.8461  2.3770132  0.0598001
 4069.9216  2.4167707  0.0587152
 4073.9838  2.4270322  0.0580105
 4078.0593  2.4598875  0.0566461
 4082.1346  2.4747119  0.0553438
 4086.2232  2.4759774  0.0545881
 4090.3115  2.4724765  0.0530370
 4094.4002  2.4724355  0.0516275
 4098.4885  2.4689770  0.0507486
 4102.5902  2.4559369  0.0503862
 4106.6916  2.4242308  0.0497961
 4110.8064  2.3598998  0.0493570
 4114.9078  2.3443036  0.0486654
 4119.0222  2.3363569  0.0491725
 4123.1501  2.3489757  0.0492997
 4127.2646  2.3871784  0.0496092
 4131.3924  2.3837674  0.0493300
 4135.5330  2.3852191  0.0501904
 4139.6606  2.3994308  0.0505966
 4143.8015  2.4277871  0.0509990
 4147.9552  2.4614265  0.0505488
 4152.0958  2.4664950  0.0512875
 4156.2495  2.4597666  0.0513115
 4160.4035  2.4706931  0.0505895
 4164.5703  2.4724281  0.0503088
 4168.7371  2.5132728  0.0504753
 4172.9038  2.5309467  0.0498621
 4177.0709  2.5350828  0.0489436
 4181.2508  2.5345449  0.0481126
 4185.4306  2.5315309  0.0472650
 4189.6235  2.5104468  0.0471202
 4193.8034  2.4937949  0.0460623
 4197.9966  2.4792280  0.0453502
 4202.2026  2.4644585  0.0449291
 4206.3955  2.4469788  0.0452482
 4210.6146  2.3997121  0.0447243
 4214.8206  2.3929274  0.0446589
 4219.0396  2.4025328  0.0446037
 4223.2587  2.4090111  0.0440719
 4227.4778  2.4312327  0.0444416
 4231.7099  2.4326301  0.0443828
 4235.9420  2.4216716  0.0444735
 4240.1742  2.4353073  0.0440836
 4244.4194  2.4441395  0.0445586
 4248.6646  2.4679997  0.0445726
 4252.9098  2.4984868  0.0446189
 4257.1550  2.4886961  0.0442246
 4261.4133  2.4864988  0.0441906
 4265.6847  2.5090470  0.0446318
 4269.9430  2.5029685  0.0445248
 4274.2144  2.5081329  0.0443131
 4278.4857  2.5065012  0.0435504
 4282.7702  2.4774754  0.0433378
 4287.0546  2.4735477  0.0435597
 4291.3391  2.4769025  0.0430650
 4295.6366  2.4720922  0.0422174
 4299.9207  2.4336703  0.0417579
 4304.2313  2.4115374  0.0413194
 4308.5288  2.4060404  0.0413889
 4312.8394  2.4029424  0.0405765
 4317.1500  2.3998222  0.0402403
 4321.4733  2.3865125  0.0401976
 4325.7970  2.3730810  0.0400976
 4330.1207  2.3545890  0.0403205
 4334.4443  2.3282144  0.0395514
 4338.7807  2.3413253  0.0392506
 4343.1175  2.3280883  0.0391163
 4347.4673  2.3338811  0.0390620
 4351.8171  2.3020098  0.0386191
 4356.1666  2.2838292  0.0390075
 4360.5164  2.2937100  0.0391283
 4364.8793  2.2623830  0.0392890
 4369.2419  2.2653120  0.0394411
 4373.6179  2.2751908  0.0390105
 4377.9935  2.2644053  0.0394814
 4382.3695  2.2440369  0.0392764
 4386.7454  2.2399805  0.0389145
 4391.1342  2.2422538  0.0384598
 4395.5232  2.2313454  0.0376608
 4399.9250  2.2349637  0.0370571
 4404.3271  2.2409203  0.0369052
 4408.7289  2.2329359  0.0362778
 4413.1441  2.2535405  0.0356473
 4417.5590  2.2526588  0.0348287
 4421.9742  2.2693665  0.0341378
 4426.3890  2.2781880  0.0336198
 4430.8173  2.2864673  0.0337648
 4435.2453  2.2799816  0.0337109
 4439.6863  2.2805605  0.0333122
 4444.1276  2.2921908  0.0333663
 4448.5686  2.2897093  0.0335095
 4453.0231  2.2720597  0.0336301
 4457.4641  2.2613287  0.0336523
 4461.9312  2.2551565  0.0336401
 4466.3857  2.2588253  0.0335658
 4470.8528  2.2700717  0.0334716
 4475.3331  2.2544768  0.0333287
 4479.8006  2.2425487  0.0331762
 4484.2808  2.2409935  0.0331611
 4488.7611  2.2229490  0.0327772
 4493.2544  2.2006912  0.0329873
 4497.7480  2.1871367  0.0327522
 4502.2544  2.1727593  0.0325230
 4506.7477  2.1704721  0.0323408
 4511.2541  2.1724854  0.0322104
 4515.7736  2.1760230  0.0317962
 4520.2803  2.1606967  0.0318324
 4524.7998  2.1568465  0.0319350
 4529.3323  2.1474383  0.0322300
 4533.8649  2.1480279  0.0321898
 4538.3974  2.1647339  0.0321708
 4542.9300  2.1771367  0.0318954
 4547.4756  2.1718442  0.0319711
 4552.0212  2.1986039  0.0321269
 4556.5802  2.1809382  0.0324304
 4561.1389  2.1895578  0.0328843
 4565.6976  2.1817851  0.0334591
 4570.2563  2.1927712  0.0332556
 4574.8281  2.1973691  0.0333511
 4579.3999  2.2123456  0.0333882
 4583.9847  2.2166324  0.0334041
 4588.5696  2.2103715  0.0333522
 4593.1544  2.1999373  0.0332552
 4597.7520  2.1855700  0.0332711
 4602.3499  2.1889443  0.0329717
 4606.9479  2.1907973  0.0333022
 4611.5589  2.1868777  0.0332822
 4616.1699  2.1825166  0.0332848
 4620.7939  2.1900108  0.0333456
 4625.4049  2.1811242  0.0333635
 4630.0290  2.1725192  0.0333983
 4634.6658  2.1596444  0.0330747
 4639.3030  2.1751339  0.0331037
 4643.9401  2.1873505  0.0331101
 4648.5773  2.1885579  0.0330055
 4653.2275  2.1811295  0.0328523
 4657.8774  2.1694610  0.0329951
 4662.5407  2.1587956  0.0327047
 4667.2040  2.1713493  0.0324082
 4671.8800  2.1629441  0.0318948
 4676.5433  2.1484547  0.0316245
 4681.2197  2.1503930  0.0313913
 4685.9088  2.1377685  0.0311829
 4690.5852  2.1343572  0.0310309
 4695.2746  2.1224425  0.0309099
 4699.9768  2.1304491  0.0308869
 4704.6794  2.1229300  0.0308823
 4709.3819  2.1251309  0.0308293
 4714.0972  2.1217301  0.0304973
 4718.7997  2.1077461  0.0305010
 4723.5280  2.1069031  0.0308132
 4728.2436  2.0960624  0.0308643
 4732.9720  2.0792325  0.0309396
 4737.7137  2.0663619  0.0309892
 4742.4421  2.0597022  0.0310261
 4747.1838  2.0474811  0.0310729
 4751.9383  2.0485382  0.0311019
 4756.6931  2.0372777  0.0310743
 4761.4476  2.0335240  0.0309624
 4766.2155  2.0162983  0.0305249
 4770.9700  1.9950247  0.0303732
 4775.7507  1.9691430  0.0302192
 4780.5186  1.9571544  0.0299877
 4785.2992  1.9322035  0.0297246
 4790.0930  1.9434958  0.0294602
 4794.8739  1.9133608  0.0291554
 4799.6807  1.9016088  0.0288730
 4804.4745  1.8948724  0.0292714
 4809.2816  1.8907915  0.0298034
 4814.0884  1.8892099  0.0304754
 4818.9083  1.9043870  0.0284043
 4823.7151  1.9193915  0.0278579
 4828.5483  1.9389952  0.0278660
 4833.3682  1.9454871  0.0283803
 4838.2142  1.9510586  0.0287836
 4843.0472  1.9470401  0.0292901
 4847.8932  1.9555357  0.0298698
 4852.7396  1.9633482  0.0304452
 4857.5856  1.9773012  0.0309840
 4862.4447  1.9683317  0.0314733
 4867.3169  1.9822400  0.0318964
 4872.1760  1.9761670  0.0320242
 4877.0482  1.9504615  0.0317335
 4881.9334  1.9459369  0.0312314
 4886.8056  1.9319336  0.0306533
 4891.7039  1.9348984  0.0300209
 4896.5892  1.9132670  0.0294312
 4901.4875  1.9095297  0.0288800
 4906.3858  1.9079584  0.0283641
 4911.2972  1.9068263  0.0277150
 4916.2086  1.9019175  0.0273958
 4921.1200  1.8762360  0.0274072
 4926.0445  1.8827389  0.0279433
 4930.9690  1.8772067  0.0297229
 4935.9065  1.8999722  0.0290999
 4940.8310  1.9171817  0.0285943
 4945.7816  1.9120010  0.0281376
 4950.7192  1.9323107  0.0283281
 4955.6695  1.9548602  0.0284990
 4960.6332  1.9413260  0.0286238
 4965.5969  1.9478436  0.0286885
 4970.5606  1.9433204  0.0287179
 4975.5243  1.9451319  0.0286758
 4980.5007  1.9717205  0.0282272
 4985.4906  1.9733748  0.0281386
 4990.4674  1.9387959  0.0280388
 4995.4572  1.9519019  0.0279155
 5000.4598  1.9452629  0.0277918
 5005.4628  1.9630910  0.0277064
 5010.4657  1.9624796  0.0277228
 5015.4683  1.9583280  0.0278154
 5020.4843  1.9620016  0.0279663
 5025.5134  1.9532752  0.0282625
 5030.5421  1.9496297  0.0284542
 5035.5712  1.9298753  0.0286046
 5040.6000  1.9122535  0.0286721
 5045.6421  1.9040277  0.0287300
 5050.6839  1.9044439  0.0287800
 5055.7392  1.9128081  0.0287562
 5060.7941  1.9356385  0.0287089
 5065.8624  1.9465930  0.0286100
 5070.9173  1.9586895  0.0284494
 5075.9987  1.9625548  0.0282446
 5081.0666  1.9637764  0.0280494
 5086.1480  1.9336010  0.0278697
 5091.2422  1.9233791  0.0274408
 5096.3366  1.9269717  0.0273142
 5101.4307  1.9460300  0.0272317
 5106.5249  1.9559962  0.0272302
 5111.6324  1.9648463  0.0277208
 5116.7527  1.9525481  0.0283401
 5121.8599  1.9690018  0.0278872
 5126.9936  1.9996467  0.0272288
 5132.1138  1.9835165  0.0271230
 5137.2472  1.9745770  0.0273125
 5142.3809  1.9538682  0.0276726
 5147.5273  1.9416512  0.0281257
 5152.6737  1.9352289  0.0286099
 5157.8332  1.8990886  0.0288607
 5162.9800  1.8813561  0.0293532
 5168.1526  1.8463985  0.0302464
 5173.3121  1.8632761  0.0305904
 5178.4847  1.8823118  0.0308134
 5183.6703  1.8947918  0.0307884
 5188.8560  1.9020960  0.0305990
 5194.0416  1.9241592  0.0302908
 5199.2407  1.9420912  0.0298837
 5204.4394  1.9404161  0.0294133
 5209.6381  1.9335244  0.0286698
 5214.8500  1.9371214  0.0281822
 5220.0618  1.9429141  0.0277152
 5225.2866  1.9445070  0.0273079
 5230.5115  1.9638393  0.0270204
 5235.7364  1.9855653  0.0269530
 5240.9744  1.9965193  0.0272870
 5246.2123  2.0122402  0.0282193
 5251.4634  2.0073757  0.0275807
 5256.7144  2.0013695  0.0268126
 5261.9782  1.9837848  0.0266985
 5267.2292  1.9794661  0.0266141
 5272.5064  1.9734174  0.0265700
 5277.7836  1.9629987  0.0265395
 5283.0607  1.9726129  0.0265254
 5288.3379  1.9368794  0.0265509
 5293.6279  1.9480146  0.0263542
 5298.9181  1.9312304  0.0263950
 5304.2215  1.9126565  0.0264474
 5309.5248  1.9056637  0.0265026
 5314.8281  1.8810086  0.0265583
 5320.1442  1.8665584  0.0268565
 5325.4737  1.8645838  0.0268981
 5330.7901  1.8494397  0.0266866
 5336.1323  1.8357645  0.0266902
 5341.4618  1.8173344  0.0266779
 5346.8044  1.8069209  0.0266679
 5352.1469  1.8153285  0.0266445
 5357.5019  1.8213820  0.0265973
 5362.8575  1.8179909  0.0265276
 5368.2266  1.8264625  0.0264087
 5373.5950  1.8182952  0.0263304
 5378.9633  1.8275617  0.0262744
 5384.3451  1.8430471  0.0262554
 5389.7269  1.8574071  0.0262209
 5395.1214  1.8710784  0.0259287
 5400.5160  1.8854572  0.0258304
 5405.9105  1.8911314  0.0257841
 5411.3185  1.8943045  0.0259756
 5416.7391  1.8932526  0.0259340
 5422.1471  1.8974042  0.0259081
 5427.5812  1.8820949  0.0256462
 5433.0018  1.9043067  0.0256123
 5438.4359  1.8754964  0.0256004
 5443.8694  1.8668323  0.0255974
 5449.3162  1.8694669  0.0256149
 5454.7637  1.8755835  0.0256735
 5460.2233  1.8743644  0.0257042
 5465.6835  1.8641844  0.0257452
 5471.1565  1.8575940  0.0257918
 5476.6167  1.8506538  0.0258611
 5482.1025  1.8584032  0.0257633
 5487.5754  1.8641109  0.0261587
 5493.0618  1.8688586  0.0262754
 5498.5610  1.8666759  0.0263693
 5504.0601  1.8616712  0.0264667
 5509.5592  1.8622053  0.0263277
 5515.0718  1.8557599  0.0263572
 5520.5837  1.8666155  0.0265960
 5526.1090  1.8532132  0.0265614
 5531.6342  1.8319907  0.0262674
 5537.1729  1.8173461  0.0261873
 5542.7110  1.7982408  0.0261078
 5548.2496  1.7861274  0.0260196
 5553.8011  1.7736961  0.0258936
 5559.3525  1.7622956  0.0258266
 5564.9167  1.7537415  0.0257705
 5570.4815  1.7418801  0.0257373
 5576.0457  1.7502308  0.0257302
 5581.6233  1.7392803  0.0257294
 5587.2009  1.7351865  0.0261895
 5592.7919  1.7385352  0.0267668
 5598.3822  1.7159832  0.0265414
 5603.9860  1.7488235  0.0256150
 5609.5897  1.7443997  0.0255871
 5615.1934  1.7407526  0.0259179
 5620.8099  1.7311428  0.0259676
 5626.4398  1.7207819  0.0263193
 5632.0569  1.7149228  0.0267033
 5637.6996  1.7157290  0.0273995
 5643.3295  1.6981767  0.0275430
 5648.9721  1.6789762  0.0279064
 5654.6282  1.6719133  0.0281995
 5660.2842  1.6689941  0.0284168
 5665.9402  1.6722288  0.0285271
 5671.6090  1.6682571  0.0283827
 5677.2778  1.6723388  0.0281621
 5682.9600  1.6817276  0.0275333
 5688.6422  1.6875936  0.0274218
 5694.3244  1.6923816  0.0270239
 5700.0193  1.6903659  0.0266362
 5705.7277  1.7025046  0.0260220
 5711.4226  1.7079297  0.0257007
 5717.1437  1.7125628  0.0257082
 5722.8520  1.7153811  0.0255133
 5728.5731  1.7168305  0.0257769
 5734.3076  1.7326626  0.0266326
 5740.0421  1.7181259  0.0258275
 5745.7893  1.7077889  0.0253539
 5751.5238  1.7053031  0.0253053
 5757.2838  1.6846123  0.0252863
 5763.0444  1.6660095  0.0252535
 5768.8051  1.6688117  0.0252458
 5774.5651  1.6739713  0.0253529
 5780.3519  1.6694963  0.0251704
 5786.1253  1.6536570  0.0252831
 5791.9120  1.6565207  0.0252663
 5797.7116  1.6579297  0.0250902
 5803.4984  1.6806124  0.0253533
 5809.3107  1.6840729  0.0254221
 5815.1102  1.6824796  0.0253300
 5820.9359  1.6923065  0.0254151
 5826.7488  1.6917468  0.0257259
 5832.5879  1.6791236  0.0256122
 5838.4136  1.6768966  0.0257060
 5844.2521  1.6802546  0.0260353
 5850.1039  1.6898383  0.0259494
 5855.9430  1.6896954  0.0260517
 5861.8076  1.6819807  0.0259264
 5867.6594  1.6627465  0.0260023
 5873.5374  1.6656363  0.0258421
 5879.4027  1.6571666  0.0255361
 5885.2807  1.6386704  0.0257072
 5891.1714  1.6334130  0.0257186
 5897.0628  1.6464937  0.0255486
 5902.9669  1.6472538  0.0257806
 5908.8577  1.6488183  0.0258661
 5914.7752  1.6445976  0.0257984
 5920.6921  1.6619697  0.0262537
 5926.6096  1.6549637  0.0262202
 5932.5393  1.6572220  0.0262572
 5938.4696  1.6552849  0.0262183
 5944.4133  1.6563489  0.0263084
 5950.3563  1.6387494  0.0263619
 5956.3000  1.6302255  0.0261503
 5962.2558  1.6151859  0.0263300
 5968.2257  1.6132058  0.0262877
 5974.1949  1.6101555  0.0259731
 5980.1647  1.5986629  0.0260531
 5986.1466  1.5938026  0.0257221
 5992.1292  1.6019073  0.0258766
 5998.1252  1.6118383  0.0258579
 6004.1206  1.6192594  0.0257380
 6010.1293  1.6090070  0.0260209
 6016.1374  1.6150119  0.0258485
 6022.1595  1.6159048  0.0257536
 6028.1810  1.6194209  0.0257605
 6034.2025  1.6211653  0.0258156
 6040.2374  1.6205801  0.0259018
 6046.2851  1.6403017  0.0260502
 6052.3334  1.6379592  0.0261160
 6058.3810  1.6254057  0.0260436
 6064.4421  1.6281242  0.0263949
 6070.5025  1.6360582  0.0262804
 6076.5763  1.6362559  0.0266207
 6082.6507  1.6299397  0.0267087
 6088.7372  1.6220274  0.0265574
 6094.8244  1.6110491  0.0267813
 6100.9244  1.6114733  0.0266190
 6107.0116  1.5974274  0.0268609
 6113.1243  1.5980864  0.0266439
 6119.2376  1.5944177  0.0266348
 6125.3637  1.5820743  0.0267083
 6131.4898  1.5701698  0.0267277
 6137.6159  1.5758582  0.0267263
 6143.7554  1.5827671  0.0266001
 6149.8949  1.5805315  0.0263617
 6156.0471  1.5619003  0.0266039
 6162.1994  1.5410240  0.0265297
 6168.3644  1.5324675  0.0268509
 6174.5428  1.5256298  0.0268551
 6180.7084  1.5198216  0.0269901
 6186.8868  1.5253261  0.0273944
 6193.0786  1.5158724  0.0274010
 6199.2698  1.5181127  0.0278101
 6205.4743  1.5084624  0.0277667
 6211.6789  1.5154670  0.0163756
 6217.8968  1.5100695  0.0164694
 6224.1013  1.4991283  0.0166541
 6230.3320  1.4964898  0.0167647
 6236.5621  1.4930997  0.0168871
 6242.8062  1.4923457  0.0170853
 6249.0496  1.4880033  0.0172291
 6255.2937  1.4831783  0.0174046
 6261.5506  1.4796869  0.0176744
 6267.8074  1.4744581  0.0178679
 6274.0770  1.4673368  0.0182238
 6280.3466  1.4685632  0.0184494
 6286.6296  1.4679024  0.0185564
 6292.9260  1.4695559  0.0187822
 6299.2218  1.4661878  0.0190192
 6305.5175  1.4624673  0.0194201
 6311.8139  1.4624465  0.0196752
 6318.1358  1.4669113  0.0215262
 6324.4450  1.4702930  0.0220859
 6330.7669  1.4687670  0.0223310
 6337.1022  1.4661998  0.0228760
 6343.4375  1.4729271  0.0232707
 6349.7855  1.4762273  0.0234143
 6356.1336  1.4759890  0.0238597
 6362.4950  1.4762539  0.0241964
 6368.8565  1.4818954  0.0246172
 6375.2179  1.4827970  0.0247256
 6381.6049  1.4826016  0.0251515
 6387.9797  1.4869210  0.0254606
 6394.3667  1.4871408  0.0255742
 6400.7677  1.4911923  0.0259682
 6407.1680  1.4880939  0.0262043
 6413.5684  1.4891598  0.0265508
 6419.9949  1.4914980  0.0273208
 6426.4086  1.4967322  0.0277037
 6432.8351  1.4993646  0.0276860
 6439.2750  1.4934871  0.0280117
 6445.7015  1.4958042  0.0281776
 6452.1542  1.4910713  0.0284912
 6458.6068  1.4880553  0.0285240
 6465.0595  1.4980485  0.0285929
 6471.5255  1.5040981  0.0287967
 6478.0043  1.4995555  0.0303607
 6484.4831  1.4856184  0.0306266
 6490.9619  1.4840378  0.0305203
 6497.4541  1.4853421  0.0305291
 6503.9591  1.4844545  0.0304364
 6510.4640  1.4911433  0.0304665
 6516.9690  1.4895262  0.0302625
 6523.4867  1.4963396  0.0303412
 6530.0050  1.4830667  0.0302410
 6536.5361  1.4758441  0.0302904
 6543.0800  1.4695841  0.0301978
 6549.6245  1.4721050  0.0302957
 6556.1683  1.4718865  0.0302198
 6562.7256  1.4663421  0.0303505
 6569.2828  1.4550004  0.0303279
 6575.8529  1.4565158  0.0305192
 6582.4363  1.4307758  0.0307746
 6589.0197  1.4087408  0.0309207
 6595.6165  1.3962324  0.0314313
 6602.1999  1.3651465  0.0321087
 6608.8094  1.3656020  0.0317095
 6615.4183  1.3530003  0.0313550
 6622.0279  1.3535490  0.0310232
 6628.6508  1.3486985  0.0308608
 6635.2859  1.3430959  0.0308336
 6641.9216  1.3415009  0.0305403
 6648.5573  1.3381644  0.0303214
 6655.2057  1.3380535  0.0302194
 6661.8676  1.3294939  0.0301338
 6668.5294  1.3139662  0.0300633
 6675.1913  1.3042126  0.0300372
 6681.8659  1.2956470  0.0299411
 6688.5539  1.2920048  0.0298757
 6695.2419  1.2840570  0.0298514
 6701.9427  1.2806174  0.0297807
 6708.6434  1.2774869  0.0297481
 6715.3442  1.2659948  0.0296995
 6722.0717  1.2592608  0.0297397
 6728.7852  1.2576391  0.0297927
 6735.5128  1.2625440  0.0298333
 6742.2525  1.2625794  0.0299301
 6748.9928  1.2632710  0.0296807
 6755.7458  1.2704101  0.0295102
 6762.4989  1.2742583  0.0294378
 6769.2653  1.2813661  0.0293190
 6776.0311  1.2929116  0.0292457
 6782.8110  1.2917788  0.0291872
 6789.5902  1.2878245  0.0291905
 6796.3821  1.2819726  0.0291369
 6803.1748  1.2851900  0.0290378
 6809.9801  1.2888592  0.0287515
 6816.7989  1.2861444  0.0284898
 6823.6042  1.2888412  0.0282358
 6830.4357  1.2998478  0.0280932
 6837.2672  1.3034970  0.0279538
 6844.0987  1.3126479  0.0277587
 6850.9430  1.3173176  0.0276281
 6857.8007  1.3081179  0.0275465
 6864.6583  1.3061028  0.0273394
 6871.5160  1.2978809  0.0271476
 6878.3870  1.2856621  0.0270469
 6885.2708  1.2794040  0.0268808
 6892.1546  1.2815375  0.0267179
 6899.0512  1.2778342  0.0265181
 6905.9484  1.2730461  0.0263567
 6912.8577  1.2632314  0.0262423
 6919.7677  1.2425323  0.0444089
 6926.6910  1.2418560  0.0441921
 6933.6137  1.2440029  0.0437336
 6940.5498  1.2563140  0.0434555
 6947.4860  1.2630218  0.0432001
 6954.4348  1.2562431  0.0428843
 6961.3971  1.2528116  0.0427971
 6968.3593  1.2395086  0.0427879
 6975.3216  1.2542461  0.0427354
 6982.2966  1.2319356  0.0424251
 6989.2850  1.2373401  0.0423695
 6996.2734  1.2248635  0.0421848
 7003.2746  1.2178270  0.0418966
 7010.2630  1.1988511  0.0417548
 7017.2775  1.1854498  0.0416411
 7024.3049  1.2028770  0.0414510
 7031.3194  1.1942647  0.0413458
 7038.3595  1.1632233  0.0413955
 7045.3874  1.1483436  0.0409829
 7052.4409  1.1167362  0.0408189
 7059.4944  1.0905122  0.0406907
 7066.5478  1.0807554  0.0406421
 7073.6147  1.0988638  0.0405518
 7080.6943  1.1083072  0.0405751
 7087.7739  1.1051157  0.0406135
 7094.8669  1.0989243  0.0408598
 7101.9593  1.1140527  0.0409443
 7109.0657  1.1139714  0.0417164
 7116.1714  1.1232941  0.0416950
 7123.2900  1.1328251  0.0414682
 7130.4091  1.1407340  0.0417907
 7137.5410  1.1223058  0.0420631
 7144.6729  1.1221079  0.0425484
 7151.8182  1.0995564  0.0428027
 7158.9763  1.1008892  0.0430681
 7166.1344  1.1067373  0.0432447
 7173.3052  1.1225395  0.0434994
 7180.4766  1.1037736  0.0440159
 7187.6609  1.1244768  0.0434648
 7194.8451  1.1166210  0.0431117
 7202.0420  1.1123947  0.0428337
 7209.2396  1.1139528  0.0425276
 7216.4500  1.0753834  0.0420086
 7223.6604  1.0598509  0.0417087
 7230.8835  1.0425456  0.0409468
 7238.1200  1.0228202  0.0407621
 7245.3565  1.0285356  0.0413727
 7252.6058  1.0408752  0.0400098
 7259.8557  1.0487860  0.0387061
 7267.1183  1.0260451  0.0381348
 7274.3938  1.0207093  0.0376574
 7281.6564  1.0198188  0.0377024
 7288.9452  1.0210787  0.0376072
 7296.2334  1.0125264  0.0379780
 7303.5356  1.0228653  0.0374776
 7310.8372  1.0205799  0.0370935
 7318.1388  1.0014147  0.0369032
 7325.4671  0.9818003  0.0368036
 7332.7948  0.9942743  0.0368814
 7340.1225  0.9875571  0.0365158
 7347.4637  1.0010780  0.0361413
 7354.8048  1.0133057  0.0362394
 7362.1586  1.0205055  0.0362246
 7369.5259  1.0147762  0.0363947
 7376.8925  1.0157804  0.0359846
 7384.2732  1.0148948  0.0359661
 7391.6660  1.0104861  0.0359590
 7399.0466  0.9983461  0.0358800
 7406.4528  0.9923705  0.0358148
 7413.8589  0.9893938  0.0357244
 7421.2651  0.9802020  0.0360795
 7428.6974  0.9873633  0.0364653
 7436.1170  0.9934574  0.0364302
 7443.5621  0.9982694  0.0358146
 7451.0078  1.0102348  0.0358010
 7458.4535  1.0013058  0.0355473
 7465.9120  1.0061016  0.0355320
 7473.3832  0.9987156  0.0353203
 7480.8550  1.0054454  0.0354133
 7488.3397  1.0011952  0.0351867
 7495.8243  0.9888158  0.0348037
 7503.3216  0.9657418  0.0345039
 7510.8197  0.9664849  0.0342595
 7518.3304  0.9621961  0.0339226
 7525.8539  0.9755357  0.0337779
 7533.3781  0.9551578  0.0331731
 7540.9150  0.9449179  0.0325510
 7548.4519  0.9408301  0.0323352
 7556.0016  0.9365811  0.0321835
 7563.5519  0.9382594  0.0319366
 7571.1278  0.9418823  0.0314409
 7578.6908  0.9416518  0.0310779
 7586.2800  0.9161137  0.0308184
 7593.8559  0.9183914  0.0307347
 7601.4585  0.9323322  0.0308679
 7609.0604  0.9422164  0.0308309
 7616.6624  0.9318117  0.0309259
 7624.2778  0.9303862  0.0308917
 7631.9065  0.9548810  0.0309826
 7639.5347  0.9718914  0.0310820
 7647.1762  0.9751958  0.0309682
 7654.8305  0.9691772  0.0309343
 7662.4847  0.9640678  0.0307098
 7670.1390  0.9544919  0.0305391
 7677.8201  0.9597697  0.0303031
 7685.4871  0.9572164  0.0300329
 7693.1809  0.9570767  0.0296751
 7700.8747  0.9583114  0.0294799
 7708.5685  0.9561340  0.0293643
 7716.2879  0.9499809  0.0290763
 7723.9951  0.9513386  0.0285323
 7731.7278  0.9482631  0.0281232
 7739.4605  0.9461314  0.0281819
 7747.1933  0.9473391  0.0286782
 7754.9394  0.9439827  0.0288634
 7762.6982  0.9431955  0.0287233
 7770.4571  0.9420488  0.0288822
 7778.2287  0.9410120  0.0290543
 7786.0144  0.9420385  0.0294745
 7793.7994  0.9473526  0.0299211
 7801.5844  0.9551067  0.0303870
 7809.3956  0.9572837  0.0309779
 7817.2068  0.9385446  0.0314271
 7825.0180  0.9542205  0.0318176
 7832.8419  0.9708980  0.0321302
 7840.6792  0.9685327  0.0326218
 7848.5165  0.9519128  0.0326791
 7856.3673  0.9329039  0.0326687
 7864.2307  0.9296981  0.0327706
 7872.0942  0.9203501  0.0328184
 7879.9704  0.9200279  0.0326233
 7887.8473  0.9106898  0.0322076
 7895.7369  0.9044133  0.0320455
 7903.6259  0.8907311  0.0321187
 7911.5289  0.8947066  0.0319265
 7919.4447  0.8950457  0.0312399
 7927.3605  0.8883848  0.0306715
 7935.2890  0.8823927  0.0304435
 7943.2309  0.8747346  0.0303597
 7951.1728  0.8614053  0.0301752
 7959.1275  0.8583859  0.0295709
 7967.0822  0.8741933  0.0289926
 7975.0503  0.8692358  0.0285939
 7983.0183  0.8652437  0.0281366
 7991.0126  0.8595152  0.0277847
 7999.0061  0.8609440  0.0274455
 8007.0004  0.8627129  0.0270862
 8015.0073  0.8574105  0.0268415
 8023.0277  0.8469746  0.0265440
 8031.0481  0.8531967  0.0264315
 8039.0812  0.8540288  0.0264160
 8047.1143  0.8520409  0.0263571
 8055.1609  0.8387742  0.0261081
 8063.2201  0.8367509  0.0260574
 8071.2794  0.8332242  0.0260431
 8079.3521  0.8252257  0.0259045
 8087.4375  0.8422900  0.0256775
 8095.5229  0.8530912  0.0255428
 8103.6218  0.8656042  0.0254955
 8111.7200  0.8707128  0.0253987
 8119.8315  0.8696952  0.0252930
 8127.9565  0.8770059  0.0251681
 8136.0815  0.8789688  0.0251490
 8144.2192  0.8877754  0.0251371
 8152.3697  0.8913349  0.0253055
 8160.5074  0.8854240  0.0254564
 8168.6713  0.8910739  0.0257780
 8176.8486  0.8930939  0.0260147
 8185.0252  0.8899760  0.0259560
 8193.2152  0.8771206  0.0256522
 8201.4052  0.8862382  0.0256591
 8209.6080  0.8830638  0.0259990
 8217.8115  0.8814365  0.0261554
 8226.0276  0.8793561  0.0262444
 8234.2566  0.8823137  0.0265374
 8242.4989  0.9048339  0.0269997
 8250.7412  0.9052745  0.0276573
 8258.9835  0.9078694  0.0283646
 8267.2520  0.8987065  0.0291472
 8275.5205  0.8982211  0.0300296
 8283.7883  0.8995739  0.0308833
 8292.0702  0.9149323  0.0315200
 8300.3648  0.9145983  0.0322437
 8308.6722  0.9070256  0.0329654
 8316.9796  0.8964753  0.0336120
 8325.2870  0.8978451  0.0333968
 8333.6212  0.8856360  0.0333937
 8341.9547  0.8830662  0.0334388
 8350.3016  0.8663254  0.0335082
 8358.6479  0.8590482  0.0331769
 8367.0076  0.8363954  0.0328321
 8375.3807  0.8085074  0.0327174
 8383.7404  0.8048942  0.0329261
 8392.1268  0.8005939  0.0326508
 8400.5254  0.7861596  0.0317588
 8408.9246  0.7706751  0.0310187
 8417.3366  0.7614377  0.0306268
 8425.7486  0.7422109  0.0305206
 8434.1867  0.7390035  0.0299865
 8442.6121  0.7269530  0.0293928
 8451.0502  0.7323500  0.0289592
 8459.5145  0.7357491  0.0293208
 8467.9654  0.7240922  0.0298350
 8476.4297  0.7545784  0.0281196
 8484.9074  0.7623228  0.0271648
 8493.3978  0.7753121  0.0271111
 8501.8882  0.8162498  0.0270383
 8510.3914  0.8539686  0.0270403
 8518.9080  0.8895183  0.0276570
 8527.4246  0.9181856  0.0285113
 8535.9546  0.9477031  0.0290105
 8544.4839  0.9684151  0.0296231
 8553.0266  0.9830247  0.0301199
 8561.5828  0.9976949  0.0309065
 8570.1510  1.0037152  0.0318757
 8578.7199  1.0088333  0.0312010
 8587.3022  1.0089256  0.0303253
 8595.8838  0.9974805  0.0299319
 8604.4788  0.9854324  0.0297240
 8613.0866  0.9480789  0.0291732
 8621.7078  0.9215159  0.0285536
 8630.3290  0.8864289  0.0283598
 8638.9502  0.8560709  0.0285441
 8647.5969  0.8115436  0.0292613
 8656.2442  0.7481126  0.0299251
 8664.9043  0.7248951  0.0309755
 8673.5650  0.6846977  0.0327046
 8682.2379  0.6659492  0.0337825
 8690.9247  0.6618828  0.0329291
 8699.6110  0.6599392  0.0323634
 8708.3100  0.6589457  0.0332306
 8717.0230  0.6991350  0.0326430
 8725.7354  0.6887736  0.0313739
 8734.4605  0.6822230  0.0303645
 8743.1991  0.6807044  0.0302255
 8751.9382  0.6612421  0.0298718
 8760.6895  0.6584778  0.0292411
 8769.4542  0.6488102  0.0287198
 8778.2189  0.6314333  0.0284401
 8787.0098  0.6268680  0.0286323
 8795.7878  0.6424845  0.0295846
 8804.5914  0.6401650  0.0295268
 8813.3957  0.6418324  0.0297977
 8822.2126  0.6155608  0.0309691
 8831.0296  0.6149568  0.0314434
 8839.8594  0.6002901  0.0314014
 8848.7025  0.5869933  0.0320644
 8857.5457  0.5807005  0.0325853
 8866.4149  0.5890006  0.0332312
 8875.2715  0.5672302  0.0332704
 8884.1535  0.5590090  0.0331382
 8893.0362  0.6032625  0.0331964
 8901.9310  0.5942024  0.0331955
 8910.8398  0.6092850  0.0329156
 8919.7480  0.6099163  0.0329187
 8928.6696  0.6202692  0.0339766
 8937.5912  0.6133278  0.0342006
 8946.5255  0.6104138  0.0338204
 8955.4733  0.5939344  0.0333914
 8964.4338  0.6027985  0.0334373
 8973.3949  0.5887475  0.0343454
 8982.3682  0.5845068  0.0341116
 8991.3554  0.5867588  0.0340526
 9000.3421  0.6109914  0.0340978
 9009.3549  0.6143858  0.0336895
 9018.3549  0.6392943  0.0337118
 9027.3805  0.6207010  0.0330657
 9036.4066  0.6085873  0.0320794
 9045.4328  0.6159093  0.0318449
 9054.4845  0.6087844  0.0317803
 9063.5369  0.6034237  0.0307827
 9072.6020  0.5912746  0.0300220
 9081.6804  0.5968570  0.0301383
 9090.7583  0.6053919  0.0302128
 9099.8495  0.5953817  0.0301449
 9108.9542  0.5976760  0.0295896
 9118.0588  0.6016563  0.0292221
 9127.1762  0.6121492  0.0289095
 9136.3064  0.6079377  0.0286361
 9145.4499  0.6169136  0.0282686
 9154.5934  0.6126443  0.0277498
 9163.7370  0.6210784  0.0275704
 9172.9067  0.6034136  0.0269400
 9182.0891  0.5990939  0.0265481
 9191.2588  0.6102349  0.0259972
 9200.4547  0.6092907  0.0254194
 9209.6639  0.6005117  0.0248779
 9218.8597  0.5969921  0.0245011
 9228.0817  0.6051362  0.0241349
 9237.3165  0.6022345  0.0238412
 9246.5512  0.6009185  0.0234966
 9255.7994  0.5864630  0.0232645
 9265.0603  0.5792162  0.0228353
 9274.3218  0.5885679  0.0227179
 9283.5961  0.5978413  0.0228010
 9292.8832  0.5992532  0.0226216
 9302.1702  0.5949912  0.0222822
 9311.4706  0.5946115  0.0221657
 9320.7838  0.5946755  0.0221880
 9330.1104  0.5973067  0.0220927
 9339.4370  0.5941753  0.0222246
 9348.7764  0.6046628  0.0223390
 9358.1285  0.6094286  0.0223887
 9367.4812  0.6323435  0.0221701
 9376.8601  0.6276422  0.0219349
 9386.2384  0.6311260  0.0216541
 9395.6173  0.6323282  0.0216908
 9405.0089  0.6352758  0.0220111
 9414.4267  0.6387465  0.0227028
 9423.8317  0.6566566  0.0234251
 9433.2623  0.6511188  0.0238987
 9442.6935  0.6386625  0.0241675
 9452.1374  0.6352485  0.0248135
 9461.5948  0.6595410  0.0254882
 9471.0515  0.6738188  0.0260883
 9480.5216  0.6814367  0.0268428
 9490.0051  0.7042757  0.0270501
 9499.5007  0.7027483  0.0272729
 9508.9969  0.7197306  0.0277307
 9518.5066  0.7268006  0.0276351
 9528.0290  0.7408572  0.0273083
 9537.5514  0.7308860  0.0274986
 9547.0865  0.7181752  0.0273926
 9556.6351  0.6989555  0.0272050
 9566.1964  0.6843076  0.0268129
 9575.7583  0.6849421  0.0270071
 9585.3330  0.6779079  0.0280683
 9594.9205  0.6723042  0.0282991
 9604.5213  0.6593383  0.0274962
 9614.1215  0.6350492  0.0267958
 9623.7358  0.6207393  0.0262212
 9633.3628  0.6250938  0.0258753
 9643.0025  0.6175999  0.0255943
 9652.6423  0.6093591  0.0251270
 9662.2954  0.5973106  0.0249018
 9671.9479  0.5879677  0.0244033
 9681.6272  0.5778498  0.0239028
 9691.3065  0.5780311  0.0236371
 9700.9986  0.5816245  0.0234699
 9710.7040  0.5896369  0.0229586
 9720.4088  0.5821537  0.0228289
 9730.1270  0.5882612  0.0227953
 9739.8586  0.5846751  0.0226891
 9749.6030  0.5827120  0.0221612
 9759.3607  0.5927049  0.0218931
 9769.1178  0.5871807  0.0214297
 9778.8883  0.5761476  0.0212768
 9788.6589  0.5688987  0.0215165
 9798.4555  0.5619032  0.0216802
 9808.2522  0.5610361  0.0219923
 9818.0622  0.5603446  0.0225674
 9827.8850  0.5552207  0.0236860
 9837.7078  0.5388598  0.0250748
 9847.5434  0.5286821  0.0260563
 9857.3923  0.5240219  0.0263708
 9867.2540  0.5359897  0.0271344
 9877.1164  0.5428996  0.0277943
 9886.9915  0.5238249  0.0292064
 9896.8793  0.5224907  0.0292425
 9906.7806  0.5184500  0.0282389
 9916.6818  0.5055729  0.0266750
 9926.6092  0.5283300  0.0246976
 9936.5360  0.5280539  0.0235946
 9946.4768  0.5233764  0.0228653
 9956.4170  0.5225667  0.0226604
 9966.3705  0.5179439  0.0224280
 9976.3368  0.5170941  0.0222279
 9986.3165  0.5345352  0.0223604
 9996.3090  0.5182958  0.0223554
 10006.3015  0.5308834  0.0229509
 10016.3073  0.5507413  0.0234742
 10026.3259  0.5534717  0.0245334
 10036.3445  0.5684466  0.0243104
 10046.3893  0.5874732  0.0249210
 10056.4340  0.5980912  0.0251188
 10066.4922  0.6077653  0.0256719
 10076.5631  0.6286173  0.0254629
 10086.6340  0.6322027  0.0256975
 10096.7311  0.6446749  0.0259768
 10106.8154  0.6574363  0.0266674
 10116.9252  0.6792787  0.0264750
 10127.0484  0.6740055  0.0266312
 10137.1716  0.6891821  0.0274753
 10147.3082  0.7058318  0.0286254
 10157.4576  0.7015014  0.0293598
 10167.6197  0.6902167  0.0282705
 10177.7818  0.6803108  0.0277864
 10187.9573  0.6724080  0.0272120
 10198.1462  0.6532956  0.0270842
 10208.3479  0.6386987  0.0268708
 10218.5495  0.6108837  0.0268861
 10228.7767  0.5977942  0.0254168
 10239.0045  0.5793902  0.0242895
 10249.2457  0.5705777  0.0235242
 10259.4990  0.5560710  0.0230813
 10269.7530  0.5395796  0.0228442
 10280.0197  0.5440229  0.0219214
 10290.3132  0.5409052  0.0215273
 10300.5927  0.5385296  0.0208416
 10310.8989  0.5263823  0.0207322
 10321.2052  0.5166973  0.0204227
 10331.5376  0.5177938  0.0202088
 10341.8693  0.5202319  0.0196839
 10352.2018  0.5185205  0.0194992
 10362.5603  0.5193028  0.0192948
 10372.9182  0.5170316  0.0189666
 10383.2895  0.5222723  0.0185015
 10393.6743  0.5151641  0.0184565
 10404.0717  0.5204316  0.0186282
 10414.4692  0.5220481  0.0183099
 10424.8928  0.5169082  0.0179429
 10435.3164  0.5215220  0.0176305
 10445.7534  0.5277967  0.0174765
 10456.2032  0.5340175  0.0172855
 10466.6529  0.5320321  0.0171338
 10477.1289  0.5305920  0.0169074
 10487.6048  0.5282555  0.0163241
