# SOURCE  = 'Quimby et al. 2018' /                                                
# OBJECT  = '2011ke  '           /                                                
# Z       = 0.142900 / wavelengths in OBSERVER FRAME (from rest frame x (1+z))
# NORM    =          1.62270E-17 / fluxes divided by norm                         
# CLIPPED =                    1 / galaxy emission lines removed                  
# SMOOTHED=                    1 / spectrum has been smoothed                     
# COLUMN01= 'Wavelength (Angstrom)' /                                             
# COLUMN02= 'Flux Density (erg/s/cm2/A)' /                                        
# COLUMN03= 'Flux Density Uncertainty (erg/s/cm2/A)' /                            
# END                                                                             
# 
# 
# 
# 
# 
# 
# 
# 
# 
# 
# Converted to Observer Frame using z=0.143
 4097.32696 0.8000981 0.0831792
 4101.43273 0.8142182 0.0794757
 4105.53850 0.8379402 0.0759670
 4109.64438 0.8456708 0.0727720
 4113.75015 0.8460749 0.0698002
 4117.85592 0.8565999 0.0670347
 4121.97655 0.8756747 0.0635903
 4126.09730 0.8824973 0.0612433
 4130.23267 0.8828561 0.0590641
 4134.35330 0.8860408 0.0563551
 4138.48902 0.8898404 0.0545141
 4142.63959 0.8960786 0.0527908
 4146.77531 0.9044701 0.0511496
 4150.92589 0.9180877 0.0494382
 4155.07658 0.9171638 0.0476126
 4159.22715 0.9097479 0.0462444
 4163.39270 0.9008573 0.0449733
 4167.55791 0.8959855 0.0436518
 4171.72346 0.8979425 0.0425499
 4175.88901 0.9022371 0.0415060
 4180.06953 0.9012437 0.0401682
 4184.24994 0.8981977 0.0392321
 4188.43046 0.8762242 0.0383485
 4192.62561 0.8686639 0.0372318
 4196.82099 0.8626978 0.0364500
 4201.01649 0.8647218 0.0357062
 4205.21187 0.8579406 0.0349999
 4209.42188 0.8578824 0.0341901
 4213.63235 0.8511305 0.0335436
 4217.84271 0.8498403 0.0328437
 4222.05272 0.8432333 0.0321097
 4226.27805 0.8457287 0.0315361
 4230.50338 0.8419470 0.0310084
 4234.74333 0.8274309 0.0303837
 4238.96866 0.8248070 0.0299274
 4243.20896 0.8208969 0.0294480
 4247.46378 0.8221911 0.0287784
 4251.70408 0.8196516 0.0282756
 4255.95936 0.8081570 0.0277815
 4260.21417 0.7975492 0.0271575
 4264.46933 0.7989944 0.0266872
 4268.73924 0.7909720 0.0262054
 4273.00937 0.7865919 0.0256450
 4277.27951 0.7806459 0.0252155
 4281.56427 0.7813477 0.0248012
 4285.83441 0.7724304 0.0242673
 4290.11917 0.7688567 0.0238909
 4294.41925 0.7616068 0.0235352
 4298.70401 0.7549452 0.0230729
 4303.00409 0.7496008 0.0227389
 4307.31869 0.7473577 0.0224053
 4311.61877 0.7357684 0.0219819
 4315.93337 0.7322664 0.0216449
 4320.24808 0.7306240 0.0213358
 4324.56302 0.7252592 0.0209324
 4328.89259 0.7256590 0.0206200
 4333.22261 0.7194542 0.0202138
 4337.55218 0.7228300 0.0199397
 4341.89673 0.7198117 0.0196747
 4346.24161 0.7206320 0.0193103
 4350.58604 0.7240179 0.0190365
 4354.93058 0.7278440 0.0187675
 4359.29044 0.7262158 0.0184116
 4363.64996 0.7234818 0.0181576
 4368.00936 0.7177882 0.0178410
 4372.38419 0.7123984 0.0176272
 4376.75857 0.7105443 0.0174217
 4381.13306 0.7106575 0.0171620
 4385.50778 0.7069429 0.0169494
 4389.89713 0.7052285 0.0166524
 4394.28647 0.7020935 0.0164378
 4398.67594 0.6982723 0.0162257
 4403.08014 0.6900823 0.0159451
 4407.48492 0.6907659 0.0157493
 4411.88913 0.6890446 0.0155078
 4416.30843 0.6917660 0.0153308
 4420.71275 0.6910483 0.0151613
 4425.13193 0.6962942 0.0149413
 4429.56654 0.6952832 0.0147802
 4434.00070 0.6990309 0.0145728
 4438.43496 0.6996765 0.0144267
 4442.86912 0.7002521 0.0142846
 4447.31825 0.6984994 0.0141033
 4451.75251 0.7006416 0.0139987
 4456.21650 0.7054682 0.0138546
 4460.66574 0.7088435 0.0137455
 4465.12973 0.7069512 0.0135909
 4469.59383 0.7037772 0.0134816
 4474.05793 0.7009495 0.0133619
 4478.53700 0.6965366 0.0131896
 4483.01596 0.7025660 0.0219186
 4487.49504 0.6976297 0.0217949
 4491.98897 0.6982912 0.0217450
 4496.48302 0.6899281 0.0215539
 4500.97695 0.6909632 0.0214178
 4505.47088 0.6885955 0.0210514
 4509.97991 0.6828544 0.0209502
 4514.48881 0.6666873 0.0208817
 4519.01269 0.6634980 0.0207487
 4523.52160 0.6625739 0.0206083
 4528.04536 0.6671864 0.0205155
 4532.58422 0.6745409 0.0205164
 4537.10775 0.6792132 0.0204042
 4541.64649 0.6967254 0.0202445
 4546.18534 0.7039110 0.0201078
 4550.73906 0.7115862 0.0200532
 4555.29288 0.7211181 0.0198930
 4559.84625 0.7258381 0.0196832
 4564.39996 0.7288172 0.0195323
 4568.96865 0.7382964 0.0194847
 4573.53733 0.7422637 0.0193233
 4578.10613 0.7528084 0.0190567
 4582.68934 0.7494280 0.0188300
 4587.27299 0.7299386 0.0187155
 4591.85665 0.7091537 0.0184933
 4596.45483 0.6980943 0.0183740
 4601.05346 0.6922749 0.0184244
 4605.65209 0.6921338 0.0184171
 4610.25027 0.6859986 0.0184172
 4614.86376 0.6863239 0.0184297
 4619.47736 0.6874003 0.0185560
 4624.10548 0.6841920 0.0185829
 4628.71897 0.6829348 0.0185936
 4633.34744 0.6832684 0.0187012
 4637.99053 0.6921193 0.0186639
 4642.63397 0.6897516 0.0185430
 4647.26209 0.6992875 0.0183872
 4651.92039 0.7082905 0.0182729
 4656.56348 0.7163154 0.0179405
 4661.22178 0.7150384 0.0176761
 4665.87985 0.7161289 0.0174708
 4670.55312 0.7013660 0.0172455
 4675.22604 0.6947109 0.0169909
 4679.89943 0.7010573 0.0169193
 4684.57236 0.6954361 0.0167828
 4689.26060 0.6922175 0.0166308
 4693.94850 0.6835054 0.0165650
 4698.65172 0.6793376 0.0166188
 4703.33962 0.6843196 0.0165818
 4708.04237 0.6893970 0.0166097
 4712.76056 0.6938570 0.0166707
 4717.46344 0.7083641 0.0165714
 4722.18151 0.7211573 0.0167372
 4726.91422 0.7281855 0.0169041
 4731.63207 0.7294110 0.0168754
 4736.36511 0.7407033 0.0170300
 4741.11279 0.7458958 0.0171780
 4745.84550 0.7525625 0.0170388
 4750.59318 0.7666255 0.0170985
 4755.34120 0.7726539 0.0171095
 4760.10385 0.7682827 0.0168338
 4764.86651 0.7588151 0.0167819
 4769.62904 0.7482010 0.0166272
 4774.39204 0.7320980 0.0164241
 4779.16966 0.7257087 0.0163283
 4783.94718 0.7268390 0.0161518
 4788.73966 0.7240502 0.0159402
 4793.51729 0.7230191 0.0158792
 4798.31011 0.7264284 0.0157515
 4803.11757 0.7206290 0.0156416
 4807.91006 0.7221979 0.0157257
 4812.73249 0.7263883 0.0154580
 4817.53995 0.7372167 0.0155216
 4822.36226 0.7336918 0.0156331
 4827.18469 0.7360085 0.0156520
 4832.00713 0.7452289 0.0156374
 4836.84442 0.7442298 0.0157096
 4841.68171 0.7582481 0.0156203
 4846.51911 0.7594169 0.0155184
 4851.37137 0.7605463 0.0153728
 4856.22364 0.7582066 0.0152826
 4861.07590 0.7653810 0.0151812
 4865.92816 0.7664827 0.0151164
 4870.79540 0.7720134 0.0150486
 4875.67761 0.7765753 0.0149069
 4880.54485 0.7866472 0.0149927
 4885.42706 0.7850683 0.0149336
 4890.30916 0.7892962 0.0148481
 4895.20634 0.7914714 0.0147026
 4900.10341 0.7968821 0.0144401
 4905.00059 0.7952883 0.0143820
 4909.91263 0.8003435 0.0141246
 4914.80936 0.7983593 0.0140789
 4919.73638 0.8007296 0.0138618
 4924.64842 0.7986740 0.0137574
 4929.57543 0.7995164 0.0136853
 4934.50245 0.8026945 0.0136105
 4939.44398 0.7917137 0.0136210
 4944.38597 0.7990625 0.0134252
 4949.32796 0.8023063 0.0133362
 4954.26983 0.8173452 0.0132787
 4959.22634 0.8175475 0.0132088
 4964.18330 0.8244492 0.0131378
 4969.15512 0.8287597 0.0130622
 4974.12695 0.8242093 0.0130447
 4979.09842 0.8180871 0.0130370
 4984.07025 0.8280931 0.0130232
 4989.05704 0.8311307 0.0129185
 4994.04349 0.8359509 0.0129980
 4999.04526 0.8330788 0.0129915
 5004.04657 0.8344299 0.0128615
 5009.04834 0.8313324 0.0128821
 5014.04999 0.8374341 0.0127093
 5019.06639 0.8349160 0.0125911
 5024.08302 0.8379118 0.0125531
 5029.11427 0.8392410 0.0123400
 5034.14588 0.8358716 0.0121912
 5039.17713 0.8442667 0.0120713
 5044.22371 0.8448852 0.0119294
 5049.26994 0.8514357 0.0118177
 5054.31651 0.8517045 0.0117448
 5059.36263 0.8556270 0.0116380
 5064.42417 0.8538379 0.0114729
 5069.48538 0.8554956 0.0114917
 5074.56144 0.8585828 0.0114481
 5079.63785 0.8647857 0.0113644
 5084.71391 0.8651133 0.0114412
 5089.80540 0.8681418 0.0114608
 5094.88147 0.8665444 0.0114167
 5099.98736 0.8682791 0.0115112
 5105.07886 0.8696916 0.0114869
 5110.18475 0.8716416 0.0113437
 5115.30573 0.8765013 0.0112502
 5120.41209 0.8818864 0.0112270
 5125.53295 0.8794530 0.0110455
 5130.65394 0.8789347 0.0109454
 5135.78978 0.8749456 0.0109511
 5140.92596 0.8731910 0.0108511
 5146.07678 0.8737903 0.0108406
 5151.21262 0.8772840 0.0108315
 5156.36344 0.8765335 0.0108078
 5161.52922 0.8814934 0.0107576
 5166.68038 0.8842767 0.0106983
 5171.84617 0.8828800 0.0105733
 5177.02682 0.8832251 0.0105957
 5182.20758 0.8857381 0.0105544
 5187.38823 0.8843261 0.0104719
 5192.56899 0.8780686 0.0104724
 5197.76461 0.8766424 0.0105542
 5202.96023 0.8724649 0.0105101
 5208.17117 0.8725463 0.0105552
 5213.38176 0.8805214 0.0105880
 5218.59236 0.8775297 0.0106750
 5223.80295 0.8784763 0.0106040
 5229.02852 0.8818759 0.0105926
 5234.25409 0.8748269 0.0105735
 5239.49451 0.8762761 0.0105648
 5244.73505 0.8832761 0.0105516
 5249.97548 0.8899559 0.0105366
 5255.23054 0.8877815 0.0105316
 5260.48594 0.8893692 0.0104588
 5265.74145 0.8855394 0.0105193
 5271.01182 0.8903399 0.0105064
 5276.28220 0.8909853 0.0105116
 5281.56743 0.8928847 0.0104494
 5286.83780 0.8891646 0.0104622
 5292.12315 0.8831926 0.0105261
 5297.42301 0.8783464 0.0104966
 5302.72333 0.8797188 0.0104066
 5308.02353 0.8778958 0.0103821
 5313.32385 0.8832656 0.0103421
 5318.63903 0.8778124 0.0102964
 5323.95387 0.8757748 0.0102566
 5329.28402 0.8751473 0.0102014
 5334.61417 0.8711115 0.0101339
 5339.95884 0.8703923 0.0100570
 5345.28899 0.8729051 0.0099224
 5350.63412 0.8706656 0.0098563
 5355.99376 0.8664802 0.0098759
 5361.33888 0.8663723 0.0098422
 5366.69887 0.8712712 0.0098115
 5372.07348 0.8766624 0.0097322
 5377.44855 0.8763621 0.0097334
 5382.82351 0.8754494 0.0097333
 5388.21310 0.8770577 0.0097935
 5393.58806 0.8783342 0.0097804
 5398.99250 0.8836931 0.0096947
 5404.38243 0.8872024 0.0096663
 5409.78700 0.8843985 0.0096457
 5415.20676 0.8819098 0.0096362
 5420.61132 0.8734595 0.0096355
 5426.03108 0.8635886 0.0095767
 5431.46548 0.8607968 0.0096343
 5436.90021 0.8570920 0.0096227
 5442.33461 0.8529515 0.0096064
 5447.78432 0.8444927 0.0095702
 5453.21871 0.8348749 0.0095099
 5458.68305 0.8312723 0.0093763
 5464.13276 0.8301933 0.0092860
 5469.59699 0.8321627 0.0091948
 5475.07630 0.8278291 0.0091208
 5480.54087 0.8277796 0.0090580
 5486.03504 0.8240379 0.0090047
 5491.51435 0.8268344 0.0090249
 5497.00887 0.8327852 0.0089320
 5502.50304 0.8331031 0.0088926
 5508.01219 0.8396124 0.0088692
 5513.50636 0.8441358 0.0088917
 5519.03071 0.8520679 0.0088178
 5524.53985 0.8605410 0.0087833
 5530.07883 0.8680247 0.0087993
 5535.60295 0.8785989 0.0088427
 5541.14193 0.8868093 0.0088430
 5546.68136 0.8878739 0.0089050
 5552.22034 0.8859463 0.0089603
 5557.77429 0.8841746 0.0089881
 5563.34322 0.8861471 0.0089842
 5568.89717 0.8802353 0.0089523
 5574.46609 0.8727887 0.0088969
 5580.04988 0.8630864 0.0088282
 5585.61880 0.8529583 0.0087375
 5591.21756 0.8359910 0.0086310
 5596.80146 0.8270313 0.0085386
 5602.40021 0.8234236 0.0084322
 5607.99897 0.8204122 0.0083976
 5613.61270 0.8216498 0.0084061
 5619.22643 0.8217038 0.0084523
 5624.84016 0.8232604 0.0084057
 5630.46886 0.8213206 0.0084003
 5636.09757 0.8232105 0.0084130
 5641.74113 0.8272872 0.0084258
 5647.36983 0.8249069 0.0084298
 5653.02837 0.8260450 0.0084379
 5658.67205 0.8285132 0.0084469
 5664.33024 0.8367358 0.0084394
 5670.00375 0.8348645 0.0084333
 5675.67726 0.8385631 0.0084392
 5681.35077 0.8435164 0.0084648
 5687.02427 0.8450573 0.0084960
 5692.71230 0.8497618 0.0085225
 5698.41576 0.8516349 0.0085358
 5704.10424 0.8597287 0.0085423
 5709.80758 0.8694983 0.0085467
 5715.52555 0.8848495 0.0085435
 5721.24398 0.8916454 0.0085494
 5726.96230 0.9074455 0.0085430
 5732.68027 0.9167524 0.0085497
 5738.41355 0.9260044 0.0085728
 5744.16182 0.9367808 0.0086195
 5749.90962 0.9473007 0.0086760
 5755.65788 0.9523218 0.0086734
 5761.40580 0.9654741 0.0087176
 5767.16892 0.9731938 0.0087596
 5772.93170 0.9857283 0.0087746
 5778.70991 0.9880467 0.0087756
 5784.48766 1.0026909 0.0087578
 5790.28072 1.0114841 0.0087320
 5796.05847 1.0217798 0.0086906
 5801.86651 1.0368996 0.0086473
 5807.65912 1.0532376 0.0086059
 5813.46716 1.0720924 0.0085258
 5819.28983 1.0906922 0.0084783
 5825.11273 1.1097730 0.0084577
 5830.93529 1.1267292 0.0084617
 5836.75796 1.1497504 0.0084537
 5842.59583 1.1690836 0.0084563
 5848.44834 1.1915032 0.0084726
 5854.28587 1.2130702 0.0084964
 5860.15368 1.2341776 0.0084735
 5866.00607 1.2531937 0.0085942
 5871.87355 1.2666634 0.0088252
 5877.74137 1.2724150 0.0087296
 5883.62370 1.2809281 0.0085423
 5889.50604 1.2887191 0.0085838
 5895.40335 1.2944838 0.0086949
 5901.28614 1.2987677 0.0088788
 5907.19842 1.2984618 0.0090728
 5913.09573 1.2962061 0.0092618
 5919.00801 1.2946841 0.0094316
 5924.93515 1.2921644 0.0095686
 5930.86241 1.2814468 0.0093762
 5936.78955 1.2764498 0.0093320
 5942.73212 1.2736096 0.0091500
 5948.67423 1.2721125 0.0089366
 5954.61635 1.2705317 0.0087194
 5960.57355 1.2629342 0.0084705
 5966.53064 1.2654603 0.0083247
 5972.50258 1.2615517 0.0082627
 5978.47464 1.2599617 0.0085130
 5984.44671 1.2494905 0.0086286
 5990.43374 1.2446381 0.0083276
 5996.42066 1.2387969 0.0082064
 6002.42267 1.2336771 0.0081927
 6008.42456 1.2258463 0.0081799
 6014.44108 1.2143166 0.0081174
 6020.44298 1.2087942 0.0081545
 6026.47482 1.2019503 0.0081479
 6032.50665 1.2001650 0.0081384
 6038.53838 1.1987848 0.0080773
 6044.57022 1.1917263 0.0080672
 6050.61669 1.1877970 0.0081014
 6056.66339 1.1825687 0.0080879
 6062.72517 1.1744616 0.0080378
 6068.78685 1.1739382 0.0080272
 6074.84852 1.1689551 0.0080156
 6080.92482 1.1623791 0.0080581
 6087.01644 1.1532754 0.0080125
 6093.09308 1.1456017 0.0080192
 6099.19922 1.1410228 0.0080231
 6105.29084 1.1351532 0.0079721
 6111.39743 1.1276516 0.0080123
 6117.50391 1.1197927 0.0079988
 6123.62467 1.1125593 0.0079350
 6129.74612 1.1056191 0.0079212
 6135.88300 1.0976404 0.0079615
 6142.01909 1.0920469 0.0079104
 6148.15505 1.0903490 0.0078971
 6154.30645 1.0816303 0.0078869
 6160.45785 1.0704284 0.0078857
 6166.62376 1.0680951 0.0078798
 6172.78979 1.0600719 0.0078777
 6178.95570 1.0567319 0.0078333
 6185.13705 1.0533210 0.0078679
 6191.33279 1.0458817 0.0078482
 6197.51414 1.0375681 0.0077906
 6203.72531 1.0380276 0.0077825
 6209.92106 1.0340648 0.0078233
 6216.13223 1.0349891 0.0077789
 6222.34272 1.0304698 0.0077806
 6228.56842 1.0277759 0.0078322
 6234.79491 1.0273997 0.0077950
 6241.03523 1.0274136 0.0077998
 6247.27624 1.0272279 0.0078078
 6253.53188 1.0306388 0.0078155
 6259.77289 1.0316588 0.0078251
 6266.04316 1.0326703 0.0077911
 6272.29868 1.0278841 0.0078478
 6278.56964 1.0267090 0.0078188
 6284.85522 1.0264910 0.0078307
 6291.14069 1.0208734 0.0078988
 6297.42617 1.0217257 0.0078680
 6303.72707 1.0224551 0.0078718
 6310.02717 1.0188304 0.0078828
 6316.34259 1.0179375 0.0078803
 6322.65789 1.0166063 0.0078721
 6328.98862 1.0190858 0.0078543
 6335.31867 1.0188767 0.0077954
 6341.64929 1.0166312 0.0078229
 6347.99466 1.0262548 0.0078133
 6354.33991 1.0291595 0.0077665
 6360.69979 1.0332375 0.0078077
 6367.06035 1.0346593 0.0077630
 6373.42024 1.0414304 0.0078128
 6379.79543 1.0365939 0.0077769
 6386.17063 1.0376489 0.0077757
 6392.56114 1.0393050 0.0077650
 6398.95085 1.0403905 0.0077515
 6405.35600 1.0324389 0.0077315
 6411.76103 1.0317527 0.0077119
 6418.16606 1.0325913 0.0076568
 6424.58572 1.0316186 0.0076658
 6431.02069 1.0257794 0.0075978
 6437.44104 1.0229274 0.0076336
 6443.89064 1.0301926 0.0075927
 6450.32562 1.0357347 0.0076497
 6456.77511 1.0363331 0.0076334
 6463.24003 1.0396912 0.0076518
 6469.70484 1.0469151 0.0076711
 6476.16965 1.0489953 0.0076836
 6482.64909 1.0555210 0.0076910
 6489.12853 1.0566899 0.0076454
 6495.62328 1.0596821 0.0076845
 6502.11803 1.0575157 0.0076381
 6508.61279 1.0616844 0.0076669
 6515.12206 1.0695368 0.0076098
 6521.64676 1.0692827 0.0076384
 6528.15603 1.0659977 0.0075940
 6534.69525 1.0762492 0.0075931
 6541.21984 1.0785507 0.0076063
 6547.75905 1.0822012 0.0075934
 6554.31359 1.0871744 0.0075795
 6560.86812 1.0927565 0.0075692
 6567.43717 1.1018354 0.0075165
 6573.99170 1.1072094 0.0075532
 6580.57538 1.1197232 0.0075096
 6587.15975 1.1319703 0.0075465
 6593.74423 1.1398785 0.0075015
 6600.32791 1.1546798 0.0075001
 6606.94222 1.1602943 0.0075005
 6613.54122 1.1666127 0.0075060
 6620.15542 1.1813025 0.0075135
 6626.78436 1.1900157 0.0075172
 6633.39867 1.2024333 0.0075230
 6640.04213 1.2117367 0.0074892
 6646.67096 1.2177680 0.0075369
 6653.32973 1.2314568 0.0075051
 6659.97388 1.2437311 0.0075159
 6666.64797 1.2517328 0.0075695
 6673.30674 1.2612085 0.0075455
 6679.98015 1.2771655 0.0075588
 6686.66876 1.2866830 0.0075717
 6693.34285 1.3036354 0.0075927
 6700.04609 1.3201587 0.0076187
 6706.73469 1.3381664 0.0076360
 6713.45325 1.3511488 0.0076592
 6720.15729 1.3655142 0.0076409
 6726.87584 1.3836559 0.0076679
 6733.60891 1.3929191 0.0076928
 6740.34278 1.4169343 0.0076369
 6747.09117 1.4342316 0.0076623
 6753.82435 1.4410212 0.0077413
 6760.58805 1.4571989 0.0077484
 6767.35107 1.4671021 0.0078108
 6774.11477 1.4781338 0.0078754
 6780.89242 1.4934970 0.0079140
 6787.67075 1.4962407 0.0079528
 6794.46440 1.4999917 0.0079759
 6801.25725 1.5005018 0.0079380
 6808.05090 1.5016984 0.0079137
 6814.85838 1.4957461 0.0079153
 6821.68198 1.4909197 0.0078433
 6828.50477 1.4799128 0.0078087
 6835.32825 1.4759811 0.0077705
 6842.16556 1.4708906 0.0077182
 6849.00368 1.4675063 0.0077708
 6855.85710 1.4598048 0.0077995
 6862.70985 1.4516566 0.0077378
 6869.57779 1.4456314 0.0077183
 6876.44505 1.4270819 0.0077253
 6883.32831 1.4194745 0.0077730
 6890.21088 1.4184511 0.0077373
 6897.09346 1.4113914 0.0077508
 6903.99135 1.4037799 0.0077707
 6910.90387 1.3998812 0.0077886
 6917.81708 1.3902260 0.0077640
 6924.72948 1.3766317 0.0077864
 6931.65732 1.3613315 0.0078503
 6938.58436 1.3485255 0.0078605
 6945.52671 1.3348005 0.0078684
 6952.46975 1.3206125 0.0078416
 6959.42662 1.3065184 0.0078523
 6966.38429 1.2946299 0.0078512
 6973.35659 1.2821543 0.0078489
 6980.31426 1.2720401 0.0078055
 6987.30107 1.2583330 0.0078040
 6994.28858 1.2447277 0.0078423
 7001.29071 1.2337848 0.0078387
 7008.29284 1.2239006 0.0078384
 7015.29497 1.2216254 0.0078323
 7022.31242 1.2188910 0.0077859
 7029.32987 1.2137203 0.0077844
 7036.36184 1.2074668 0.0077816
 7043.39391 1.1991457 0.0077769
 7050.44051 1.1939923 0.0077731
 7057.50242 1.1867800 0.0077738
 7064.54970 1.1825947 0.0077792
 7071.61161 1.1774018 0.0077430
 7078.68884 1.1743122 0.0077494
 7085.76538 1.1695482 0.0077630
 7092.85712 1.1656879 0.0077818
 7099.94898 1.1583489 0.0078053
 7107.05604 1.1660473 0.0078299
 7114.14779 1.1664714 0.0078615
 7121.26948 1.1639632 0.0078908
 7128.39048 1.1662470 0.0079184
 7135.52749 1.1687781 0.0079048
 7142.66369 1.1755778 0.0079399
 7149.80070 1.1773750 0.0079698
 7156.95234 1.1775645 0.0080027
 7164.10386 1.1710491 0.0080406
 7171.27001 1.1659586 0.0080842
 7178.43616 1.1631685 0.0081959
 7185.61763 1.1629437 0.0084686
 7192.81442 1.1633112 0.0087928
 7200.01052 1.1688536 0.0086541
 7207.20650 1.1681466 0.0084911
 7214.40329 1.1733178 0.0087702
 7221.62922 1.1744601 0.0090719
 7228.84063 1.1787910 0.0092495
 7236.06657 1.1788528 0.0097037
 7243.30781 1.1859288 0.0103176
 7250.54906 1.1798195 0.0110309
 7257.80483 1.1880763 0.0117517
 7265.06070 1.1922815 0.0127200
 7272.33179 1.1928138 0.0129848
 7279.60298 1.1939857 0.0128543
 7286.87406 1.1872956 0.0124368
 7294.17440 1.1810580 0.0119002
 7301.46080 1.1773545 0.0113333
 7308.76114 1.1772041 0.0108458
 7316.07748 1.1695389 0.0106198
 7323.39302 1.1664011 0.0110196
 7330.70868 1.1641721 0.0107446
 7338.05417 1.1617904 0.0107334
 7345.38503 1.1592913 0.0100786
 7352.73052 1.1566693 0.0101791
 7360.09132 1.1578496 0.0102919
 7367.43681 1.1541517 0.0103836
 7374.81225 1.1476303 0.0106098
 7382.18757 1.1271271 0.0108332
 7389.56301 1.1219336 0.0110027
 7396.95365 1.1199636 0.0113466
 7404.35891 1.1112262 0.0119319
 7411.76418 1.1091254 0.0120046
 7419.16945 1.0974299 0.0107606
 7426.59004 1.1072996 0.0105686
 7434.02525 1.1062680 0.0105084
 7441.46035 1.1130164 0.0104744
 7448.89557 1.1140517 0.0104484
 7456.34530 1.1052941 0.0104439
 7463.79572 1.1125807 0.0105229
 7471.26076 1.1212416 0.0113503
 7478.74044 1.1186600 0.0105599
 7486.22080 1.1202353 0.0099461
 7493.70037 1.1269031 0.0096125
 7501.19536 1.1280862 0.0092629
 7508.69024 1.1276833 0.0089266
 7516.19986 1.1200244 0.0086266
 7523.72469 1.1159424 0.0083934
 7531.24952 1.1088917 0.0082769
 7538.78966 1.1030343 0.0084405
 7546.31449 1.0945888 0.0084920
 7553.86914 1.0987996 0.0081912
 7561.42312 1.1018201 0.0079712
 7568.97789 1.1110888 0.0079129
 7576.54786 1.1084985 0.0078669
 7584.13178 1.1093049 0.0078163
 7591.71639 1.1079956 0.0077850
 7599.30099 1.1094013 0.0076979
 7606.90012 1.1233702 0.0076466
 7614.51467 1.1342832 0.0076226
 7622.12910 1.1461536 0.0076628
 7629.74366 1.1662464 0.0076635
 7637.37272 1.1853834 0.0076097
 7645.01711 1.1971776 0.0076148
 7652.66149 1.2141980 0.0076852
 7660.32051 1.2231303 0.0077862
 7667.97941 1.2423077 0.0078942
 7675.63842 1.2556396 0.0079874
 7683.32795 1.2663573 0.0080710
 7691.00148 1.2792287 0.0081144
 7698.69113 1.2932560 0.0081348
 7706.39461 1.3023736 0.0081234
 7714.09877 1.3052297 0.0080535
 7721.81745 1.3053083 0.0079706
 7729.53624 1.3111157 0.0078379
 7737.27024 1.3133422 0.0077553
 7745.00355 1.3209155 0.0076517
 7752.75297 1.3293778 0.0075576
 7760.50160 1.3391248 0.0075517
 7768.26474 1.3425179 0.0075932
 7776.02880 1.3491704 0.0075081
 7783.80725 1.3488969 0.0074374
 7791.60114 1.3506844 0.0073884
 7799.37960 1.3567154 0.0073682
 7807.18801 1.3573216 0.0073500
 7814.99641 1.3658439 0.0072774
 7822.80481 1.3641733 0.0072586
 7830.62785 1.3578615 0.0072689
 7838.46620 1.3591135 0.0072355
 7846.30444 1.3617734 0.0072187
 7854.14279 1.3637209 0.0071607
 7861.99634 1.3560029 0.0071250
 7869.86452 1.3605032 0.0070949
 7877.73271 1.3621622 0.0070706
 7885.61552 1.3597794 0.0070474
 7893.49902 1.3667476 0.0070184
 7901.39635 1.3658683 0.0069978
 7909.29448 1.3687456 0.0069800
 7917.20781 1.3675663 0.0069307
 7925.12046 1.3677766 0.0069117
 7933.04842 1.3678741 0.0069272
 7940.97650 1.3721256 0.0069153
 7948.91898 1.3764827 0.0068740
 7956.87689 1.3804696 0.0068559
 7964.83468 1.3882773 0.0068360
 7972.79259 1.3846984 0.0068239
 7980.76501 1.3838248 0.0068148
 7988.75275 1.3893815 0.0068103
 7996.74050 1.3925911 0.0067965
 8004.74287 1.3938478 0.0067561
 8012.73061 1.3891329 0.0067860
 8020.74818 1.3898919 0.0067802
 8028.78050 1.3836820 0.0067432
 8036.79807 1.3818530 0.0067247
 8044.84491 1.3777994 0.0067045
 8052.87780 1.3714187 0.0066821
 8060.93995 1.3690073 0.0066478
 8069.00210 1.3614323 0.0066497
 8077.06414 1.3536805 0.0065835
 8085.14160 1.3477283 0.0065628
 8093.23358 1.3429992 0.0065502
 8101.32557 1.3394676 0.0065413
 8109.43287 1.3356237 0.0065627
 8117.53948 1.3314450 0.0065661
 8125.66210 1.3218442 0.0065699
 8133.78391 1.3205792 0.0066125
 8141.92047 1.3215984 0.0066508
 8150.05760 1.3211534 0.0067721
 8158.20936 1.3210145 0.0068846
 8166.36112 1.3206114 0.0067166
 8174.52820 1.3223228 0.0067009
 8182.70991 1.3240983 0.0067898
 8190.89162 1.3266749 0.0069261
 8199.08784 1.3279769 0.0070245
 8207.28475 1.3286703 0.0070981
 8215.49641 1.3310333 0.0072173
 8223.70795 1.3257070 0.0072684
 8231.93401 1.3246428 0.0073455
 8240.16086 1.3263793 0.0073489
 8248.40235 1.3225427 0.0069534
 8256.64384 1.3260895 0.0068020
 8264.89984 1.3252308 0.0066559
 8273.17116 1.3242812 0.0065522
 8281.44248 1.3243541 0.0064552
 8289.72843 1.3229231 0.0064421
 8298.01507 1.3184357 0.0064333
 8306.31622 1.3180602 0.0065411
 8314.63211 1.3133518 0.0064988
 8322.93327 1.3093048 0.0063035
 8331.26436 1.3062727 0.0061522
 8339.59478 1.2958528 0.0060509
 8347.94119 1.2824523 0.0058987
 8356.28692 1.2724497 0.0057872
 8364.63265 1.2619452 0.0056481
 8373.00890 1.2492843 0.0055914
 8381.38446 1.2331051 0.0055075
 8389.76002 1.2206852 0.0055687
 8398.15101 1.2101219 0.0055368
 8406.54189 1.1997759 0.0054909
 8414.94728 1.1957177 0.0055116
 8423.36810 1.1856132 0.0055180
 8431.78813 1.1781377 0.0055266
 8440.22427 1.1713381 0.0055505
 8448.67424 1.1641622 0.0055880
 8457.11026 1.1592507 0.0056244
 8465.57555 1.1579674 0.0056299
 8474.04072 1.1581365 0.0056043
 8482.50601 1.1565803 0.0056364
 8491.00113 1.1512765 0.0056083
 8499.48173 1.1424657 0.0055866
 8507.99148 1.1326114 0.0055772
 8516.50192 1.1259615 0.0055845
 8525.01235 1.1169357 0.0056131
 8533.53742 1.1070904 0.0056037
 8542.07700 1.0983350 0.0056330
 8550.61726 1.0859603 0.0056076
 8559.17228 1.0733312 0.0056269
 8567.72717 1.0635699 0.0056379
 8576.29659 1.0545280 0.0055956
 8584.86692 1.0409247 0.0055591
 8593.45165 1.0348845 0.0054592
 8602.05101 1.0309907 0.0053790
 8610.65117 1.0273212 0.0053104
 8619.26584 1.0250016 0.0052380
 8627.88052 1.0245439 0.0051308
 8636.50983 1.0248805 0.0050946
 8645.13982 1.0274891 0.0050315
 8653.79908 1.0262219 0.0049874
 8662.44358 1.0277429 0.0049711
 8671.11804 1.0335486 0.0049266
 8679.77729 1.0425076 0.0049380
 8688.46707 1.0491728 0.0048944
 8697.15604 1.0493730 0.0048538
 8705.84512 1.0567323 0.0048657
 8714.54953 1.0586081 0.0048788
 8723.26913 1.0631096 0.0048946
 8731.98816 1.0655959 0.0049071
 8740.72240 1.0668519 0.0049616
 8749.47126 1.0649356 0.0049915
 8758.22001 1.0659679 0.0049766
 8766.96888 1.0615375 0.0049701
 8775.74837 1.0602219 0.0049715
 8784.51176 1.0552888 0.0049095
 8793.30577 1.0542481 0.0048512
 8802.09978 1.0504957 0.0047706
 8810.89380 1.0495855 0.0047245
 8819.71707 1.0441192 0.0046618
 8828.52640 1.0427909 0.0046029
 8837.36488 1.0446963 0.0046189
 8846.20335 1.0439883 0.0046439
 8855.04194 1.0395595 0.0045501
 8863.89573 1.0347335 0.0045122
 8872.76404 1.0366226 0.0045339
 8881.63247 1.0321301 0.0046127
 8890.51540 1.0264030 0.0046635
 8899.41446 1.0213733 0.0046823
 8908.31271 1.0192765 0.0047306
 8917.21097 1.0137438 0.0048169
 8926.13917 1.0080618 0.0049199
 8935.06737 1.0035120 0.0050279
 8943.99557 1.0014904 0.0050846
 8952.93829 0.9960846 0.0051672
 8961.89633 0.9961309 0.0052960
 8970.85436 0.9899188 0.0053864
 8979.82782 0.9854208 0.0055006
 8988.81569 0.9780257 0.0055601
 8997.80367 0.9767016 0.0056430
 9006.80617 0.9753641 0.0056656
 9015.80946 0.9689925 0.0055900
 9024.82728 0.9715598 0.0054529
 9033.84440 0.9750330 0.0053182
 9042.87753 0.9767506 0.0051590
 9051.92529 0.9786415 0.0050717
 9060.97305 0.9840753 0.0049645
 9070.03533 0.9956840 0.0048303
 9079.11292 1.0064247 0.0047557
 9088.19051 1.0193887 0.0047222
 9097.28273 1.0297549 0.0046725
 9106.37495 1.0416028 0.0046052
 9115.48249 1.0542482 0.0045163
 9124.58992 1.0686026 0.0044767
 9133.72740 1.0815302 0.0044214
 9142.86397 1.0906806 0.0043491
 9152.00146 1.0986392 0.0043256
 9161.15334 1.1076845 0.0043043
 9170.32066 1.1158268 0.0042690
 9179.48798 1.1226034 0.0042242
 9188.66981 1.1271123 0.0042137
 9197.85164 1.1294692 0.0042279
 9207.04891 1.1291623 0.0042620
 9216.26057 1.1265283 0.0042129
 9225.47235 1.1249449 0.0041868
 9234.69945 1.1199441 0.0041872
 9243.94106 1.1172497 0.0042067
 9253.18267 1.1134897 0.0041946
 9262.43972 1.1099272 0.0041953
 9271.69596 1.1077117 0.0042072
 9280.96740 1.1036272 0.0042163
 9290.25428 1.1018760 0.0042309
 9299.54115 1.0994838 0.0042320
 9308.84255 1.0986441 0.0042096
 9318.15857 1.0952559 0.0042014
 9327.45996 1.0977999 0.0041815
 9336.79130 1.1011407 0.0041572
 9346.13795 1.1064134 0.0041363
 9355.48380 1.1141903 0.0041098
 9364.84497 1.1177361 0.0041204
 9374.20614 1.1201365 0.0041640
 9383.58194 1.1209598 0.0041614
 9392.95854 1.1241903 0.0040835
 9402.34955 1.1268326 0.0040586
 9411.75529 1.1292294 0.0041344
 9421.17624 1.1377363 0.0042201
 9430.59719 1.1453147 0.0042865
 9440.01814 1.1527597 0.0043818
 9449.46904 1.1603229 0.0045210
 9458.91993 1.1621548 0.0046866
 9468.37003 1.1677693 0.0048726
 9477.83624 1.1717939 0.0049026
 9487.31697 1.1729085 0.0049968
 9496.81232 1.1747509 0.0051197
 9506.30768 1.1808240 0.0051510
 9515.80304 1.1811070 0.0051746
 9525.32903 1.1865387 0.0052212
 9534.85422 1.1877601 0.0052908
 9544.39473 1.1796072 0.0053002
 9553.93455 1.1757429 0.0053153
 9563.48969 1.1711783 0.0052653
 9573.06014 1.1703058 0.0051971
 9582.61528 1.1689423 0.0051184
 9592.20093 1.1688148 0.0050185
 9601.80053 1.1662617 0.0049277
 9611.40082 1.1656989 0.0048148
 9621.01573 1.1667215 0.0047140
 9630.63065 1.1686662 0.0045972
 9640.27540 1.1700335 0.0045179
 9649.90563 1.1703680 0.0044549
 9659.55038 1.1694756 0.0043494
 9669.22507 1.1657352 0.0043168
 9678.88445 1.1678805 0.0042656
 9688.55915 1.1657166 0.0041685
 9698.24916 1.1640804 0.0042071
 9707.95369 1.1640071 0.0043505
 9717.65821 1.1547402 0.0041249
 9727.37737 1.1520088 0.0040905
 9737.11184 1.1505181 0.0041930
 9746.84632 1.1465523 0.0042886
 9756.59611 1.1447126 0.0044226
 9766.34510 1.1410444 0.0045659
 9776.10940 1.1331022 0.0046764
 9785.88914 1.1266125 0.0048087
 9795.68259 1.1200402 0.0049541
 9805.47685 1.1140889 0.0048524
 9815.28641 1.1013201 0.0047392
 9825.09518 1.0901021 0.0046097
 9834.91927 1.0838556 0.0045245
 9844.75798 1.0769532 0.0044034
 9854.61202 1.0695484 0.0042817
 9864.46605 1.0645885 0.0042499
 9874.32008 1.0582163 0.0043384
 9884.20326 1.0507942 0.0046434
 9894.08712 1.0443372 0.0047070
 9903.98561 1.0423059 0.0046856
 9913.88479 1.0423685 0.0048621
 9923.79792 1.0458747 0.0051676
 9933.72693 1.0434726 0.0052445
 9943.65537 1.0461574 0.0053192
 9953.59833 1.0441874 0.0053373
 9963.55729 1.0417893 0.0052474
 9973.51556 1.0357679 0.0051499
 9983.48835 1.0301245 0.0050887
 9993.47657 1.0234147 0.0048358
 10003.46536 1.0126029 0.0045211
 10013.46810 1.0025831 0.0043728
 10023.48615 0.9960021 0.0043768
 10033.50420 0.9866786 0.0043767
 10043.55220 0.9764062 0.0043525
 10053.58546 0.9669925 0.0043564
 10063.64797 0.9578198 0.0044947
 10073.71129 0.9477149 0.0044991
 10083.78900 0.9385052 0.0046047
 10093.86683 0.9303282 0.0046387
 10103.95929 0.9200879 0.0047074
 10114.06696 0.9118244 0.0047332
 10124.17474 0.9065621 0.0047809
 10134.31223 0.9017867 0.0047173
 10144.43532 0.8935351 0.0047658
 10154.58745 0.8927730 0.0047595
 10164.74038 0.8885694 0.0048362
 10174.90713 0.8865957 0.0049092
 10185.08989 0.8825182 0.0048225
 10195.27196 0.8820281 0.0047520
 10205.46935 0.8818361 0.0047231
 10215.66674 0.8838384 0.0047700
 10225.87865 0.8839636 0.0048400
 10236.10598 0.8831777 0.0049095
 10246.34783 0.8833336 0.0049515
 10256.59037 0.8796114 0.0050032
 10266.84685 0.8773182 0.0049906
 10277.11922 0.8734837 0.0050044
 10287.39102 0.8703191 0.0049939
 10297.69265 0.8678664 0.0049913
 10307.97965 0.8648609 0.0050122
 10318.29591 0.8579832 0.0049171
 10328.61274 0.8546730 0.0047795
 10338.92969 0.8484802 0.0047213
 10349.27578 0.8516197 0.0046329
 10359.62268 0.8523436 0.0045944
 10369.98409 0.8530074 0.0045840
 10380.36070 0.8563538 0.0046045
 10390.73674 0.8619321 0.0045511
 10401.12798 0.8648335 0.0044596
 10411.53465 0.8665456 0.0044439
 10421.94121 0.8709179 0.0044413
 10432.36240 0.8733405 0.0045591
 10442.79822 0.8763191 0.0045491
 10453.24924 0.8821021 0.0044740
 10463.70026 0.8840899 0.0044057
 10474.15139 0.8869309 0.0043085
 10484.63236 0.8883405 0.0042680
 10495.12784 0.8898004 0.0041555
 10505.60881 0.8884538 0.0040874
 10516.11972 0.8879697 0.0039707
 10526.64584 0.8885159 0.0039095
 10537.15664 0.8879694 0.0038538
 10547.69738 0.8903744 0.0037881
 10558.25276 0.8912491 0.0036891
 10568.80802 0.8930829 0.0036775
 10579.37871 0.8957790 0.0036683
 10589.96392 0.8959277 0.0036263
 10600.54982 0.8962274 0.0035693
 10611.15034 0.8969355 0.0035445
 10621.76550 0.8948689 0.0035436
 10632.38054 0.8983053 0.0035123
 10643.01090 0.9005630 0.0034754
 10653.65588 0.9022826 0.0034700
 10664.31619 0.9022242 0.0034441
 10674.97649 0.9063210 0.0034345
 10685.65143 0.9110425 0.0034218
 10696.34088 0.9136285 0.0033936
 10707.03101 0.9175662 0.0033895
 10717.75109 0.9218411 0.0034328
 10728.47049 0.9272428 0.0034498
 10739.19057 0.9328924 0.0034615
 10749.92517 0.9402726 0.0034301
 10760.68972 0.9472311 0.0034442
 10771.43963 0.9526208 0.0035131
 10782.21881 0.9589244 0.0036204
 10792.99867 0.9637547 0.0037730
 10803.79305 0.9691218 0.0039213
 10814.60286 0.9728361 0.0040203
 10825.41186 0.9760501 0.0040541
 10836.23619 0.9821828 0.0040945
 10847.07583 0.9819756 0.0042169
 10857.92930 0.9837635 0.0042541
 10868.78346 0.9850781 0.0043366
 10879.65304 0.9915674 0.0042831
 10890.53715 0.9911122 0.0042961
 10901.42125 0.9873777 0.0042797
 10912.31987 0.9860932 0.0043206
 10923.23392 0.9820549 0.0043932
 10934.16249 0.9774294 0.0044579
 10945.09174 0.9660865 0.0044221
 10956.03562 0.9569161 0.0043688
 10966.99413 0.9461590 0.0042448
 10977.96785 0.9330606 0.0041575
 10988.94087 0.9226850 0.0041508
 10999.93002 0.9099072 0.0042212
 11010.93368 0.8957515 0.0042543
 11021.95186 0.8830872 0.0040838
 11032.97015 0.8676609 0.0039571
 11044.00364 0.8531846 0.0038934
 11055.03645 0.8378615 0.0038724
 11066.09989 0.8279688 0.0037679
 11077.16333 0.8178043 0.0036924
 11088.24140 0.8096583 0.0035778
 11099.33467 0.7990363 0.0035407
 11110.42726 0.7916308 0.0034751
 11121.53516 0.7861421 0.0034283
 11132.65838 0.7797492 0.0033202
 11143.79623 0.7742663 0.0033116
 11154.94928 0.7657266 0.0033138
 11166.10165 0.7601671 0.0033466
 11177.26933 0.7539814 0.0032511
 11188.43712 0.7469555 0.0032026
 11199.63464 0.7402166 0.0032744
 11210.83226 0.7340606 0.0033371
 11222.04509 0.7255980 0.0034104
 11233.27255 0.7154409 0.0034926
 11244.50002 0.7034699 0.0036558
 11255.74211 0.6921952 0.0038719
 11266.99940 0.6794106 0.0041589
 11278.27132 0.6709883 0.0043313
 11289.54405 0.6601495 0.0043678
 11300.83128 0.6533304 0.0044049
 11312.13304 0.6433629 0.0043672
 11323.45023 0.6413457 0.0042386
 11334.76730 0.6405709 0.0041507
 11346.11432 0.6426320 0.0040277
 11357.46065 0.6465349 0.0038306
 11368.82298 0.6553649 0.0035471
 11380.18463 0.6647555 0.0034338
 11391.56148 0.6771496 0.0034021
 11402.95296 0.6925898 0.0034447
 11414.35976 0.7092370 0.0036118
 11425.78119 0.7259804 0.0037979
 11437.20261 0.7449990 0.0038432
 11448.63924 0.7662168 0.0038768
 11460.09050 0.7833799 0.0038931
 11471.54176 0.8051265 0.0040011
 11483.02297 0.8278579 0.0040044
 11494.50406 0.8466426 0.0040485
 11506.00058 0.8640240 0.0040194
 11517.51162 0.8804829 0.0040254
 11529.02266 0.8942310 0.0039600
 11540.56365 0.9074740 0.0040208
 11552.09000 0.9144710 0.0040885
 11563.64550 0.9227920 0.0041856
 11575.21632 0.9295372 0.0041797
 11586.78714 0.9390156 0.0041764
 11598.37327 0.9452890 0.0041653
 11609.97404 0.9525618 0.0040608
 11621.58932 0.9602304 0.0040670
 11633.20460 0.9665139 0.0041378
 11644.83519 0.9691719 0.0043000
 11656.48111 0.9744617 0.0041277
 11668.14165 0.9764667 0.0040507
 11679.80208 0.9768786 0.0039984
 11691.49177 0.9796604 0.0039951
 11703.18214 0.9781911 0.0039293
 11714.88784 0.9744997 0.0038816
 11726.60736 0.9701566 0.0037633
 11738.32768 0.9627417 0.0036683
 11750.06252 0.9555165 0.0035937
 11761.82799 0.9447030 0.0035638
 11773.57746 0.9356470 0.0034785
 11785.35744 0.9269170 0.0033821
 11797.13754 0.9181964 0.0033256
 11808.94748 0.9063327 0.0032726
 11820.75661 0.8940847 0.0032492
 11832.56666 0.8807608 0.0031864
 11844.40642 0.8675383 0.0031842
 11856.24550 0.8553657 0.0031589
 11868.09990 0.8391948 0.0030936
 11879.96972 0.8247325 0.0030192
 11891.85395 0.8078284 0.0029653
 11903.73830 0.7897220 0.0029470
 11915.65247 0.7710303 0.0029386
 11927.56665 0.7518232 0.0029363
 11939.49614 0.7336181 0.0029261
 11951.44026 0.7149500 0.0028566
 11963.38426 0.6941026 0.0028436
 11975.35833 0.6755017 0.0028354
 11987.33229 0.6562092 0.0028274
 11999.30624 0.6379554 0.0028095
 12011.30934 0.6203181 0.0027887
 12023.32856 0.6031043 0.0027813
 12035.34697 0.5858201 0.0027737
 12047.39602 0.5699197 0.0028197
 12059.42907 0.5539742 0.0028492
 12071.49263 0.5388759 0.0028710
 12083.57163 0.5269076 0.0028822
 12095.64982 0.5139661 0.0028983
 12107.74334 0.5049343 0.0029921
 12119.85148 0.4950805 0.0031612
 12131.97482 0.4860701 0.0033845
 12144.11291 0.4799839 0.0036548
 12156.25088 0.4750676 0.0040614
 12168.40417 0.4726796 0.0044584
 12180.58741 0.4685439 0.0047747
 12192.75522 0.4663261 0.0052427
 12204.95297 0.4655919 0.0055889
 12217.16615 0.4660202 0.0058382
 12229.37842 0.4648404 0.0056956
 12241.60681 0.4657824 0.0055484
 12253.84983 0.4643883 0.0052282
 12266.10736 0.4645522 0.0049673
 12278.37952 0.4644994 0.0047824
 12290.65168 0.4613129 0.0047642
 12302.93985 0.4606963 0.0046801
 12315.24116 0.4607227 0.0046070
 12327.55847 0.4636428 0.0045572
 12339.89178 0.4698063 0.0045165
 12352.22372 0.4775112 0.0044910
 12364.58629 0.4859522 0.0045313
 12376.94738 0.5006734 0.0044197
 12389.32447 0.5111308 0.0043612
 12401.71608 0.5269194 0.0042516
 12414.12391 0.5390906 0.0041795
 12426.53015 0.5552562 0.0041642
 12438.95239 0.5735132 0.0039862
 12451.40389 0.5917228 0.0039263
 12463.84076 0.6075850 0.0038359
 12476.30826 0.6281171 0.0038113
 12488.78890 0.6497128 0.0037866
 12501.28555 0.6732832 0.0036834
 12513.78231 0.6989745 0.0036443
 12526.29348 0.7232854 0.0035331
 12538.81939 0.7457496 0.0035515
 12551.36118 0.7715852 0.0034660
 12563.91761 0.7966290 0.0034548
 12576.47415 0.8237193 0.0034889
 12589.05972 0.8507892 0.0035009
 12601.64529 0.8781664 0.0035640
 12614.24698 0.9031925 0.0036286
 12626.86319 0.9313803 0.0036753
 12639.49402 0.9590469 0.0037115
 12652.13938 0.9879284 0.0037496
 12664.78473 1.0144941 0.0037451
 12677.44620 1.0427378 0.0037562
 12690.12218 1.0663522 0.0037062
 12702.81280 1.0923460 0.0037039
 12715.51793 1.1153750 0.0037180
 12728.23769 1.1390893 0.0037110
 12740.97345 1.1573389 0.0037302
 12753.70921 1.1767604 0.0037173
 12766.45961 1.1975201 0.0036854
 12779.22452 1.2120227 0.0036394
 12792.00406 1.2239903 0.0036594
 12804.79960 1.2352058 0.0036951
 12817.60977 1.2458924 0.0037222
 12830.41994 1.2571908 0.0037509
 12843.25926 1.2643166 0.0037864
 12856.09995 1.2709613 0.0038697
 12868.95390 1.2755097 0.0039403
 12881.82386 1.2771454 0.0040449
 12894.70832 1.2760957 0.0040631
 12907.60879 1.2717719 0.0041575
 12920.50789 1.2695353 0.0042095
 12933.43762 1.2651137 0.0042595
 12946.36735 1.2587909 0.0043438
 12959.31160 1.2534332 0.0044037
 12972.27047 1.2448887 0.0044998
 12985.24535 1.2338802 0.0046366
 12998.23338 1.2214715 0.0048368
 13011.22289 1.2063859 0.0051379
 13024.24291 1.1892092 0.0055728
 13037.27620 1.1743850 0.0057757
 13050.29485 1.1573060 0.0060341
 13063.35866 1.1405036 0.0064622
 13076.42246 1.1218722 0.0069371
 13089.50238 1.1039660 0.0076879
 13102.59533 1.0853555 0.0085204
 13115.68977 1.0663978 0.0099702
 13128.81198 1.0475655 0.0111387
 13141.93557 1.0268528 0.0135947
 13155.07526 1.0095789 0.0165249
