# SOURCE  = 'Quimby et al. 2018' /                                                
# OBJECT  = '2011ke  '           /                                                
# Z       = 0.142900 / wavelengths in OBSERVER FRAME (from rest frame x (1+z))
# NORM    =            0.0209052 / fluxes divided by norm                         
# CLIPPED =                    1 / galaxy emission lines removed                  
# SMOOTHED=                    1 / spectrum has been smoothed                     
# COLUMN01= 'Wavelength (Angstrom)' /                                             
# COLUMN02= 'Flux Density (erg/s/cm2/A)' /                                        
# COLUMN03= 'Flux Density Uncertainty (erg/s/cm2/A)' /                            
# END                                                                             
# 
# 
# 
# 
# 
# 
# 
# 
# 
# 
# Converted to Observer Frame using z=0.143
 6014.44108 1.5668064 0.0156928
 6020.44298 1.5576216 0.0153523
 6026.47482 1.5475340 0.0150459
 6032.50665 1.5506864 0.0147876
 6038.53838 1.5466872 0.0146200
 6044.57022 1.5376761 0.0144514
 6050.61669 1.5396188 0.0142093
 6056.66339 1.5411409 0.0140344
 6062.72517 1.5355625 0.0138597
 6068.78685 1.5361102 0.0136143
 6074.84852 1.5319719 0.0134361
 6080.92482 1.5302163 0.0132594
 6087.01644 1.5240309 0.0130806
 6093.09308 1.5276649 0.0128374
 6099.19922 1.5252692 0.0126624
 6105.29084 1.5219382 0.0124865
 6111.39743 1.5164158 0.0122499
 6117.50391 1.5148675 0.0120803
 6123.62467 1.5074857 0.0119109
 6129.74612 1.5056530 0.0116848
 6135.88300 1.5058814 0.0115243
 6142.01909 1.5017649 0.0113648
 6148.15505 1.5046812 0.0111527
 6154.30645 1.4972095 0.0110042
 6160.45785 1.4887049 0.0108575
 6166.62376 1.4901257 0.0106621
 6172.78979 1.4878523 0.0105278
 6178.95570 1.4822479 0.0103446
 6185.13705 1.4777758 0.0102366
 6191.33279 1.4755927 0.0101163
 6197.51414 1.4707352 0.0099527
 6203.72531 1.4672968 0.0098442
 6209.92106 1.4625727 0.0097399
 6216.13223 1.4672925 0.0095951
 6222.34272 1.4674902 0.0095029
 6228.56842 1.4660310 0.0093704
 6234.79491 1.4664865 0.0093077
 6241.03523 1.4647276 0.0092305
 6247.27624 1.4647425 0.0091164
 6253.53188 1.4587981 0.0090497
 6259.77289 1.4555812 0.0089468
 6266.04316 1.4549538 0.0088896
 6272.29868 1.4524488 0.0088380
 6278.56964 1.4453133 0.0087734
 6284.85522 1.4371700 0.0087307
 6291.14069 1.4256212 0.0086547
 6297.42617 1.4171610 0.0086209
 6303.72707 1.4088092 0.0085551
 6310.02717 1.4031181 0.0085552
 6316.34259 1.3978759 0.0085348
 6322.65789 1.3910663 0.0084827
 6328.98862 1.3841392 0.0084702
 6335.31867 1.3755817 0.0084541
 6341.64929 1.3652935 0.0084500
 6347.99466 1.3620585 0.0084154
 6354.33991 1.3534000 0.0084189
 6360.69979 1.3485126 0.0084214
 6367.06035 1.3457921 0.0084318
 6373.42024 1.3436378 0.0084123
 6379.79543 1.3412818 0.0084295
 6386.17063 1.3418300 0.0084820
 6392.56114 1.3465244 0.0084725
 6398.95085 1.3456129 0.0085002
 6405.35600 1.3500175 0.0085300
 6411.76103 1.3490779 0.0085633
 6418.16606 1.3485632 0.0085651
 6424.58572 1.3493246 0.0086393
 6431.02069 1.3493638 0.0086464
 6437.44104 1.3407829 0.0086898
 6443.89064 1.3331670 0.0087391
 6450.32562 1.3297068 0.0087875
 6456.77511 1.3292950 0.0088029
 6463.24003 1.3286695 0.0088598
 6469.70484 1.3343379 0.0089142
 6476.16965 1.3325285 0.0089345
 6482.64909 1.3277565 0.0090339
 6489.12853 1.3228455 0.0090568
 6495.62328 1.3225040 0.0091611
 6502.11803 1.3282520 0.0091859
 6508.61279 1.3292755 0.0092501
 6515.12206 1.3314074 0.0093207
 6521.64676 1.3376063 0.0093871
 6528.15603 1.3440045 0.0094600
 6534.69525 1.3546312 0.0095282
 6541.21984 1.3611709 0.0096027
 6547.75905 1.3700954 0.0096290
 6554.31359 1.3792598 0.0096981
 6560.86812 1.3881574 0.0097726
 6567.43717 1.3994453 0.0098424
 6573.99170 1.4096683 0.0099163
 6580.57538 1.4200801 0.0099384
 6587.15975 1.4403936 0.0100587
 6593.74423 1.4610984 0.0100779
 6600.32791 1.4750246 0.0100474
 6606.94222 1.4947553 0.0100625
 6613.54122 1.5090942 0.0100754
 6620.15542 1.5229547 0.0100860
 6626.78436 1.5445292 0.0100941
 6633.39867 1.5661378 0.0102032
 6640.04213 1.5842290 0.0102517
 6646.67096 1.6038038 0.0101157
 6653.32973 1.6283147 0.0100549
 6659.97388 1.6463571 0.0101184
 6666.64797 1.6662173 0.0102115
 6673.30674 1.6718723 0.0103143
 6679.98015 1.6934152 0.0104107
 6686.66876 1.7033567 0.0104868
 6693.34285 1.7120930 0.0104762
 6700.04609 1.7230368 0.0104691
 6706.73469 1.7351300 0.0104113
 6713.45325 1.7501779 0.0103177
 6720.15729 1.7545803 0.0101963
 6726.87584 1.7573456 0.0100582
 6733.60891 1.7583456 0.0099044
 6740.34278 1.7678840 0.0097760
 6747.09117 1.7674904 0.0096784
 6753.82435 1.7737110 0.0096357
 6760.58805 1.7817730 0.0096912
 6767.35107 1.7860802 0.0096354
 6774.11477 1.7917651 0.0094573
 6780.89242 1.7903419 0.0094125
 6787.67075 1.7921305 0.0094086
 6794.46440 1.7872832 0.0093122
 6801.25725 1.7761320 0.0092637
 6808.05090 1.7678099 0.0092145
 6814.85838 1.7600392 0.0091649
 6821.68198 1.7537230 0.0090669
 6828.50477 1.7468994 0.0090167
 6835.32825 1.7363247 0.0090037
 6842.16556 1.7240429 0.0089048
 6849.00368 1.7075760 0.0088533
 6855.85710 1.6997279 0.0088020
 6862.70985 1.6833922 0.0087510
 6869.57779 1.6732839 0.0086894
 6876.44505 1.6582285 0.0086383
 6883.32831 1.6482559 0.0085877
 6890.21088 1.6374699 0.0084920
 6897.09346 1.6256880 0.0084424
 6903.99135 1.6169060 0.0084297
 6910.90387 1.6071846 0.0083379
 6917.81708 1.5967637 0.0082909
 6924.72948 1.5852937 0.0082454
 6931.65732 1.5743642 0.0081941
 6938.58436 1.5663319 0.0081511
 6945.52671 1.5602160 0.0081101
 6952.46975 1.5500230 0.0080304
 6959.42662 1.5403250 0.0080274
 6966.38429 1.5290318 0.0079524
 6973.35659 1.5226246 0.0079202
 6980.31426 1.5131485 0.0079240
 6987.30107 1.5052054 0.0078576
 6994.28858 1.4910049 0.0078330
 7001.29071 1.4834114 0.0077730
 7008.29284 1.4769938 0.0077887
 7015.29497 1.4754030 0.0077732
 7022.31242 1.4668303 0.0077237
 7029.32987 1.4654465 0.0077501
 7036.36184 1.4643480 0.0077092
 7043.39391 1.4631540 0.0077072
 7050.44051 1.4602323 0.0077117
 7057.50242 1.4608299 0.0077175
 7064.54970 1.4586776 0.0076947
 7071.61161 1.4647027 0.0077465
 7078.68884 1.4649950 0.0077654
 7085.76538 1.4683425 0.0077571
 7092.85712 1.4699054 0.0078236
 7099.94898 1.4701706 0.0078252
 7107.05604 1.4748114 0.0079030
 7114.14779 1.4748276 0.0079146
 7121.26948 1.4740181 0.0079624
 7128.39048 1.4736221 0.0080248
 7135.52749 1.4727864 0.0080814
 7142.66369 1.4680839 0.0081540
 7149.80070 1.4639567 0.0082181
 7156.95234 1.4539239 0.0082541
 7164.10386 1.4456661 0.0083689
 7171.27001 1.4345225 0.0084095
 7178.43616 1.4258766 0.0084988
 7185.61763 1.4171486 0.0085720
 7192.81442 1.4067478 0.0086633
 7200.01052 1.4000484 0.0087369
 7207.20650 1.3967268 0.0087785
 7214.40329 1.3873276 0.0090082
 7221.62922 1.3855951 0.0089963
 7228.84063 1.3765455 0.0090140
 7236.06657 1.3768667 0.0090997
 7243.30781 1.3815708 0.0092356
 7250.54906 1.3808237 0.0093748
 7257.80483 1.3852714 0.0095377
 7265.06070 1.3825481 0.0096301
 7272.33179 1.3820950 0.0098034
 7279.60298 1.3781040 0.0098385
 7286.87406 1.3735147 0.0099322
 7294.17440 1.3704191 0.0098796
 7301.46080 1.3626906 0.0098314
 7308.76114 1.3601851 0.0097511
 7316.07748 1.3479747 0.0096389
 7323.39302 1.3381414 0.0094723
 7330.70868 1.3293436 0.0094004
 7338.05417 1.3244393 0.0092975
 7345.38503 1.3125689 0.0091947
 7352.73052 1.3066050 0.0092687
 7360.09132 1.3024955 0.0090903
 7367.43681 1.2917738 0.0089094
 7374.81225 1.2898232 0.0088047
 7382.18757 1.2874423 0.0086656
 7389.56301 1.2816654 0.0085137
 7396.95365 1.2823524 0.0083780
 7404.35891 1.2790986 0.0083147
 7411.76418 1.2793479 0.0081874
 7419.16945 1.2779939 0.0078217
 7426.59004 1.2783279 0.0076834
 7434.02525 1.2781146 0.0075371
 7441.46035 1.2760226 0.0074278
 7448.89557 1.2723491 0.0073122
 7456.34530 1.2704638 0.0072059
 7463.79572 1.2738897 0.0070388
 7471.26076 1.2784387 0.0068375
 7478.74044 1.2831693 0.0067159
 7486.22080 1.2825207 0.0064368
 7493.70037 1.2851686 0.0061342
 7501.19536 1.2917819 0.0058630
 7508.69024 1.2975492 0.0056579
 7516.19986 1.2999274 0.0054782
 7523.72469 1.3023664 0.0053047
 7531.24952 1.3038200 0.0051845
 7538.78966 1.3070072 0.0050496
 7546.31449 1.3080893 0.0049208
 7553.86914 1.3097937 0.0049478
 7561.42312 1.3102763 0.0046306
 7568.97789 1.3123192 0.0045081
 7576.54786 1.3154547 0.0043858
 7584.13178 1.3157043 0.0043045
 7591.71639 1.3153265 0.0042443
 7599.30099 1.3138762 0.0042023
 7606.90012 1.3159744 0.0041634
 7614.51467 1.3169619 0.0041608
 7622.12910 1.3191340 0.0042259
 7629.74366 1.3214490 0.0043090
 7637.37272 1.3242121 0.0041716
 7645.01711 1.3312728 0.0041602
 7652.66149 1.3390334 0.0041768
 7660.32051 1.3439469 0.0042130
 7667.97941 1.3494494 0.0042662
 7675.63842 1.3546331 0.0043160
 7683.32795 1.3606523 0.0044116
 7691.00148 1.3659039 0.0045527
 7698.69113 1.3721840 0.0048237
 7706.39461 1.3816438 0.0047458
 7714.09877 1.3896288 0.0048403
 7721.81745 1.3974903 0.0048907
 7729.53624 1.4009670 0.0049639
 7737.27024 1.4051529 0.0050300
 7745.00355 1.4105238 0.0050953
 7752.75297 1.4162939 0.0051700
 7760.50160 1.4196306 0.0052709
 7768.26474 1.4260205 0.0054309
 7776.02880 1.4307300 0.0056436
 7783.80725 1.4340959 0.0055782
 7791.60114 1.4390382 0.0056877
 7799.37960 1.4453388 0.0057930
 7807.18801 1.4468606 0.0058930
 7814.99641 1.4470375 0.0059871
 7822.80481 1.4441931 0.0060744
 7830.62785 1.4389004 0.0061546
 7838.46620 1.4384476 0.0062271
 7846.30444 1.4425144 0.0062919
 7854.14279 1.4457622 0.0063488
 7861.99634 1.4441010 0.0063980
 7869.86452 1.4453673 0.0064396
 7877.73271 1.4469084 0.0064742
 7885.61552 1.4484895 0.0065020
 7893.49902 1.4501160 0.0065235
 7901.39635 1.4486681 0.0065129
 7909.29448 1.4465972 0.0065226
 7917.20781 1.4476031 0.0065272
 7925.12046 1.4432671 0.0065274
 7933.04842 1.4471641 0.0065235
 7940.97650 1.4427967 0.0065160
 7948.91898 1.4447492 0.0065053
 7956.87689 1.4468443 0.0064920
 7964.83468 1.4483567 0.0064486
 7972.79259 1.4480096 0.0064310
 7980.76501 1.4511141 0.0064403
 7988.75275 1.4541090 0.0064884
 7996.74050 1.4560695 0.0063845
 8004.74287 1.4587190 0.0063534
 8012.73061 1.4594257 0.0063394
 8020.74818 1.4576845 0.0063712
 8028.78050 1.4585472 0.0064117
 8036.79807 1.4542865 0.0064527
 8044.84491 1.4535232 0.0064875
 8052.87780 1.4493339 0.0064791
 8060.93995 1.4456960 0.0064858
 8069.00210 1.4415107 0.0064942
 8077.06414 1.4359044 0.0064585
 8085.14160 1.4421095 0.0063864
 8093.23358 1.4374168 0.0063326
 8101.32557 1.4367361 0.0062782
 8109.43287 1.4356852 0.0062303
 8117.53948 1.4316911 0.0061741
 8125.66210 1.4269539 0.0061704
 8133.78391 1.4238697 0.0062520
 8141.92047 1.4165539 0.0063370
 8150.05760 1.4099865 0.0062147
 8158.20936 1.4052460 0.0062307
 8166.36112 1.3987076 0.0062479
 8174.52820 1.3897491 0.0062688
 8182.70991 1.3853533 0.0062873
 8190.89162 1.3785402 0.0063063
 8199.08784 1.3733300 0.0063020
 8207.28475 1.3695945 0.0063208
 8215.49641 1.3658119 0.0063669
 8223.70795 1.3604785 0.0063617
 8231.93401 1.3557111 0.0063790
 8240.16086 1.3577797 0.0063956
 8248.40235 1.3547657 0.0065198
 8256.64384 1.3509499 0.0064466
 8264.89984 1.3478396 0.0064154
 8273.17116 1.3419247 0.0064506
 8281.44248 1.3375461 0.0065283
 8289.72843 1.3299298 0.0065720
 8298.01507 1.3209943 0.0066331
 8306.31622 1.3168758 0.0066576
 8314.63211 1.3099817 0.0067262
 8322.93327 1.2998697 0.0067441
 8331.26436 1.2942564 0.0067033
 8339.59478 1.2868981 0.0066948
 8347.94119 1.2762039 0.0066148
 8356.28692 1.2655185 0.0065491
 8364.63265 1.2599919 0.0064697
 8373.00890 1.2490432 0.0063971
 8381.38446 1.2383007 0.0063055
 8389.76002 1.2299658 0.0062864
 8398.15101 1.2202523 0.0062530
 8406.54189 1.2177083 0.0063012
 8414.94728 1.2150605 0.0061657
 8423.36810 1.2104061 0.0061307
 8431.78813 1.2078351 0.0060663
 8440.22427 1.2071820 0.0060472
 8448.67424 1.2014109 0.0059779
 8457.11026 1.1981252 0.0059533
 8465.57555 1.1961890 0.0058793
 8474.04072 1.1907445 0.0058492
 8482.50601 1.1860932 0.0057706
 8491.00113 1.1824987 0.0058303
 8499.48173 1.1742131 0.0056818
 8507.99148 1.1666754 0.0055958
 8516.50192 1.1590205 0.0055396
 8525.01235 1.1509138 0.0054945
 8533.53742 1.1421483 0.0054923
 8542.07700 1.1352326 0.0054505
 8550.61726 1.1264271 0.0054370
 8559.17228 1.1219931 0.0053688
 8567.72717 1.1192873 0.0052966
 8576.29659 1.1132846 0.0052155
 8584.86692 1.1058379 0.0051081
 8593.45165 1.1035028 0.0049772
 8602.05101 1.0997508 0.0048768
 8610.65117 1.0907032 0.0047422
 8619.26584 1.0856830 0.0046219
 8627.88052 1.0785017 0.0045231
 8636.50983 1.0704556 0.0044272
 8645.13982 1.0674043 0.0043397
 8653.79908 1.0645918 0.0043192
 8662.44358 1.0646596 0.0042006
 8671.11804 1.0626761 0.0041143
 8679.77729 1.0613220 0.0040514
 8688.46707 1.0583894 0.0040650
 8697.15604 1.0595514 0.0039499
 8705.84512 1.0589864 0.0038610
 8714.54953 1.0642451 0.0038037
 8723.26913 1.0662640 0.0037666
 8731.98816 1.0663688 0.0037513
 8740.72240 1.0674975 0.0037550
 8749.47126 1.0652593 0.0037340
 8758.22001 1.0629969 0.0037175
 8766.96888 1.0605252 0.0036931
 8775.74837 1.0554487 0.0036472
 8784.51176 1.0516649 0.0036183
 8793.30577 1.0467469 0.0035590
 8802.09978 1.0413857 0.0035078
 8810.89380 1.0391612 0.0034579
 8819.71707 1.0375851 0.0034022
 8828.52640 1.0325305 0.0033811
 8837.36488 1.0257344 0.0033628
 8846.20335 1.0211536 0.0033715
 8855.04194 1.0145442 0.0034028
 8863.89573 1.0119021 0.0033921
 8872.76404 1.0091060 0.0033771
 8881.63247 1.0088449 0.0033896
 8890.51540 1.0076654 0.0034074
 8899.41446 1.0041252 0.0034281
 8908.31271 0.9981552 0.0034515
 8917.21097 0.9924475 0.0034626
 8926.13917 0.9896516 0.0034903
 8935.06737 0.9848561 0.0035200
 8943.99557 0.9797948 0.0035516
 8952.93829 0.9758031 0.0035694
 8961.89633 0.9722619 0.0036144
 8970.85436 0.9682292 0.0036501
 8979.82782 0.9686137 0.0036869
 8988.81569 0.9661825 0.0037244
 8997.80367 0.9598073 0.0037461
 9006.80617 0.9573625 0.0037845
 9015.80946 0.9580757 0.0038231
 9024.82728 0.9578032 0.0038618
 9033.84440 0.9561211 0.0039002
 9042.87753 0.9541490 0.0039382
 9051.92529 0.9522038 0.0039582
 9060.97305 0.9514257 0.0039945
 9070.03533 0.9454295 0.0040297
 9079.11292 0.9427510 0.0040635
 9088.19051 0.9389954 0.0040959
 9097.28273 0.9332883 0.0041265
 9106.37495 0.9250508 0.0041551
 9115.48249 0.9205738 0.0041816
 9124.58992 0.9155815 0.0042056
 9133.72740 0.9115938 0.0042100
 9142.86397 0.9044473 0.0042286
 9152.00146 0.9001255 0.0042442
 9161.15334 0.8955051 0.0042565
 9170.32066 0.8908593 0.0042504
 9179.48798 0.8897827 0.0042551
 9188.66981 0.8889332 0.0042879
 9197.85164 0.8884371 0.0044119
 9207.04891 0.8826554 0.0045748
 9216.26057 0.8851634 0.0042669
 9225.47235 0.8848417 0.0042410
 9234.69945 0.8860882 0.0042913
 9243.94106 0.8882913 0.0043614
 9253.18267 0.8946033 0.0044486
 9262.43972 0.9018239 0.0045251
 9271.69596 0.9064561 0.0045757
 9280.96740 0.9116800 0.0045886
 9290.25428 0.9181222 0.0045311
 9299.54115 0.9205776 0.0044262
 9308.84255 0.9294768 0.0042740
 9318.15857 0.9303709 0.0041270
 9327.45996 0.9379568 0.0039796
 9336.79130 0.9439394 0.0038435
 9346.13795 0.9502752 0.0037164
 9355.48380 0.9582072 0.0036602
 9364.84497 0.9635676 0.0036939
 9374.20614 0.9709081 0.0039009
 9383.58194 0.9755905 0.0036501
 9392.95854 0.9834753 0.0035292
 9402.34955 0.9877153 0.0035337
 9411.75529 0.9936725 0.0035641
 9421.17624 0.9994488 0.0036034
 9430.59719 1.0050584 0.0036611
 9440.01814 1.0127914 0.0037372
 9449.46904 1.0136133 0.0038020
 9458.91993 1.0154839 0.0038521
 9468.37003 1.0166619 0.0038996
 9477.83624 1.0173899 0.0039343
 9487.31697 1.0165251 0.0039550
 9496.81232 1.0136238 0.0039964
 9506.30768 1.0172791 0.0040219
 9515.80304 1.0158031 0.0040510
 9525.32903 1.0153874 0.0041049
 9534.85422 1.0176594 0.0041951
 9544.39473 1.0136029 0.0044027
 9553.93455 1.0117640 0.0046390
 9563.48969 1.0122112 0.0045752
 9573.06014 1.0153643 0.0047139
 9582.61528 1.0144600 0.0048861
 9592.20093 1.0165455 0.0050267
 9601.80053 1.0155886 0.0051779
 9611.40082 1.0158333 0.0053230
 9621.01573 1.0188783 0.0055069
 9630.63065 1.0142246 0.0056606
 9640.27540 1.0117652 0.0058027
 9649.90563 1.0081445 0.0059839
 9659.55038 1.0050368 0.0061179
 9669.22507 0.9963080 0.0062577
 9678.88445 0.9973693 0.0064112
 9688.55915 0.9946066 0.0065372
 9698.24916 0.9893841 0.0066401
 9707.95369 0.9894794 0.0067807
 9717.65821 0.9916346 0.0068619
 9727.37737 0.9866653 0.0069500
 9737.11184 0.9853464 0.0070377
 9746.84632 0.9896393 0.0071031
 9756.59611 0.9917439 0.0071357
 9766.34510 0.9934865 0.0072072
 9776.10940 0.9946575 0.0072157
 9785.88914 0.9929753 0.0072398
 9795.68259 0.9910359 0.0072496
 9805.47685 0.9903154 0.0072505
 9815.28641 0.9851497 0.0072407
 9825.09518 0.9821360 0.0071967
 9834.91927 0.9772132 0.0073371
 9844.75798 0.9738126 0.0071535
 9854.61202 0.9702773 0.0070802
 9864.46605 0.9621608 0.0070524
 9874.32008 0.9562967 0.0070328
 9884.20326 0.9530547 0.0069923
 9894.08712 0.9469116 0.0069940
 9903.98561 0.9412258 0.0069284
 9913.88479 0.9342417 0.0068951
 9923.79792 0.9293665 0.0067868
 9933.72693 0.9276063 0.0066717
 9943.65537 0.9236349 0.0065500
 9953.59833 0.9191734 0.0063991
 9963.55729 0.9112953 0.0062232
 9973.51556 0.9060646 0.0060607
 9983.48835 0.9002394 0.0059168
 9993.47657 0.8961375 0.0057652
 10003.46536 0.8879114 0.0056292
 10013.46810 0.8796458 0.0055248
 10023.48615 0.8710425 0.0054410
 10033.50420 0.8627057 0.0052642
 10043.55220 0.8557775 0.0051425
 10053.58546 0.8480508 0.0050470
 10063.64797 0.8425192 0.0049192
 10073.71129 0.8386586 0.0048043
 10083.78900 0.8346765 0.0046845
 10093.86683 0.8295792 0.0045774
 10103.95929 0.8289015 0.0044955
 10114.06696 0.8279575 0.0044093
 10124.17474 0.8274207 0.0043474
 10134.31223 0.8252895 0.0042157
 10144.43532 0.8238063 0.0041269
 10154.58745 0.8240809 0.0041404
 10164.74038 0.8211975 0.0040756
 10174.90713 0.8209015 0.0040186
 10185.08989 0.8207479 0.0039912
 10195.27196 0.8177931 0.0039896
 10205.46935 0.8098639 0.0039958
 10215.66674 0.8091740 0.0039893
 10225.87865 0.8061058 0.0039999
 10236.10598 0.8058436 0.0040637
 10246.34783 0.8002138 0.0040015
 10256.59037 0.7976495 0.0039366
 10266.84685 0.7972237 0.0039086
 10277.11922 0.7956482 0.0038990
 10287.39102 0.7942203 0.0039033
 10297.69265 0.7961851 0.0039232
 10307.97965 0.7928100 0.0039491
 10318.29591 0.7924438 0.0040204
 10328.61274 0.7914682 0.0040057
 10338.92969 0.7911329 0.0040399
 10349.27578 0.7884912 0.0040715
 10359.62268 0.7863806 0.0040480
 10369.98409 0.7888170 0.0040426
 10380.36070 0.7875281 0.0040934
 10390.73674 0.7834620 0.0041211
 10401.12798 0.7792510 0.0041267
 10411.53465 0.7827705 0.0041581
 10421.94121 0.7806809 0.0042121
 10432.36240 0.7797958 0.0043332
 10442.79822 0.7759629 0.0043209
 10453.24924 0.7747269 0.0042635
 10463.70026 0.7773595 0.0042111
 10474.15139 0.7772074 0.0041537
 10484.63236 0.7788542 0.0040575
 10495.12784 0.7773202 0.0039824
 10505.60881 0.7744659 0.0039167
 10516.11972 0.7752042 0.0038771
 10526.64584 0.7736533 0.0038693
 10537.15664 0.7729206 0.0037894
 10547.69738 0.7704484 0.0037327
 10558.25276 0.7695055 0.0036760
 10568.80802 0.7699457 0.0036523
 10579.37871 0.7692817 0.0036507
 10589.96392 0.7709292 0.0036458
 10600.54982 0.7725863 0.0035994
 10611.15034 0.7781355 0.0035761
 10621.76550 0.7821272 0.0035675
 10632.38054 0.7847242 0.0035627
 10643.01090 0.7879617 0.0035621
 10653.65588 0.7891994 0.0035658
 10664.31619 0.7910772 0.0035640
 10674.97649 0.7915350 0.0035770
 10685.65143 0.7938687 0.0036063
 10696.34088 0.7922249 0.0036283
 10707.03101 0.7905276 0.0036453
 10717.75109 0.7895405 0.0036748
 10728.47049 0.7869356 0.0037073
 10739.19057 0.7850266 0.0037334
 10749.92517 0.7811860 0.0037703
 10760.68972 0.7784404 0.0038086
 10771.43963 0.7772388 0.0038525
 10782.21881 0.7765626 0.0038915
 10792.99867 0.7745218 0.0039600
 10803.79305 0.7727199 0.0040255
 10814.60286 0.7742563 0.0040258
 10825.41186 0.7735465 0.0040257
 10836.23619 0.7698734 0.0040779
 10847.07583 0.7648387 0.0041527
 10857.92930 0.7581528 0.0042365
 10868.78346 0.7540588 0.0043904
 10879.65304 0.7528165 0.0043975
 10890.53715 0.7527951 0.0044131
 10901.42125 0.7462798 0.0044524
 10912.31987 0.7421284 0.0045538
 10923.23392 0.7418362 0.0045088
 10934.16249 0.7399896 0.0044736
 10945.09174 0.7382008 0.0044147
 10956.03562 0.7321085 0.0044358
 10966.99413 0.7238908 0.0042980
 10977.96785 0.7158672 0.0042022
 10988.94087 0.7056023 0.0041383
 10999.93002 0.6959057 0.0041486
 11010.93368 0.6884098 0.0041257
 11021.95186 0.6787462 0.0040217
 11032.97015 0.6692423 0.0039072
 11044.00364 0.6554778 0.0038349
 11055.03645 0.6428160 0.0037502
 11066.09989 0.6337640 0.0037037
 11077.16333 0.6279196 0.0036836
 11088.24140 0.6221560 0.0035931
 11099.33467 0.6159751 0.0035462
 11110.42726 0.6108888 0.0035238
 11121.53516 0.6101767 0.0035596
 11132.65838 0.6049034 0.0035040
 11143.79623 0.6025164 0.0035323
 11154.94928 0.5994382 0.0035678
 11166.10165 0.5953769 0.0036609
 11177.26933 0.5957519 0.0036855
 11188.43712 0.5942466 0.0037266
 11199.63464 0.5931326 0.0037818
 11210.83226 0.5928152 0.0038796
 11222.04509 0.5921646 0.0039689
 11233.27255 0.5914071 0.0040875
 11244.50002 0.5945002 0.0042022
 11255.74211 0.5933627 0.0043338
 11266.99940 0.5975213 0.0044467
 11278.27132 0.6034611 0.0045815
 11289.54405 0.6098054 0.0046818
 11300.83128 0.6133553 0.0047884
 11312.13304 0.6190902 0.0048602
 11323.45023 0.6254593 0.0049478
 11334.76730 0.6288112 0.0050138
 11346.11432 0.6314610 0.0050529
 11357.46065 0.6366783 0.0051072
 11368.82298 0.6443553 0.0051587
 11380.18463 0.6554653 0.0052400
 11391.56148 0.6660116 0.0053723
 11402.95296 0.6705610 0.0053164
 11414.35976 0.6777632 0.0053549
 11425.78119 0.6820166 0.0053804
 11437.20261 0.6921648 0.0053992
 11448.63924 0.7005693 0.0054080
 11460.09050 0.7106479 0.0053912
 11471.54176 0.7140896 0.0053816
 11483.02297 0.7216809 0.0053630
 11494.50406 0.7280981 0.0054072
 11506.00058 0.7323655 0.0053325
 11517.51162 0.7346690 0.0052621
 11529.02266 0.7354795 0.0052199
 11540.56365 0.7362688 0.0052495
 11552.09000 0.7356798 0.0051646
 11563.64550 0.7341761 0.0051061
 11575.21632 0.7306378 0.0050701
 11586.78714 0.7314780 0.0050279
 11598.37327 0.7285213 0.0049849
 11609.97404 0.7247025 0.0049243
 11621.58932 0.7224306 0.0048487
 11633.20460 0.7209176 0.0048099
 11644.83519 0.7127712 0.0046158
 11656.48111 0.7024143 0.0044641
 11668.14165 0.6946768 0.0043373
 11679.80208 0.6838047 0.0042162
 11691.49177 0.6726754 0.0040981
 11703.18214 0.6600304 0.0039840
 11714.88784 0.6475973 0.0038779
 11726.60736 0.6317910 0.0037470
 11738.32768 0.6181002 0.0036130
 11750.06252 0.6019958 0.0034851
 11761.82799 0.5879747 0.0033726
 11773.57746 0.5714670 0.0032417
 11785.35744 0.5562251 0.0031160
 11797.13754 0.5386509 0.0029822
 11808.94748 0.5220191 0.0028708
 11820.75661 0.5073134 0.0027674
 11832.56666 0.4933806 0.0026735
 11844.40642 0.4797437 0.0026351
 11856.24550 0.4656954 0.0025257
 11868.09990 0.4535502 0.0024313
 11879.96972 0.4413736 0.0023570
 11891.85395 0.4306450 0.0023042
 11903.73830 0.4203834 0.0022574
 11915.65247 0.4111285 0.0022024
 11927.56665 0.4011788 0.0021384
 11939.49614 0.3928325 0.0020800
 11951.44026 0.3857216 0.0020216
 11963.38426 0.3772892 0.0019652
 11975.35833 0.3701658 0.0019241
 11987.33229 0.3629645 0.0018789
 11999.30624 0.3571132 0.0018435
 12011.30934 0.3507624 0.0018111
 12023.32856 0.3432999 0.0018119
 12035.34697 0.3364337 0.0017811
 12047.39602 0.3286934 0.0017610
 12059.42907 0.3238744 0.0017614
 12071.49263 0.3163494 0.0017709
 12083.57163 0.3088410 0.0017970
 12095.64982 0.3023466 0.0018366
 12107.74334 0.2953511 0.0018769
 12119.85148 0.2885409 0.0018782
 12131.97482 0.2817496 0.0019161
 12144.11291 0.2765735 0.0019567
 12156.25088 0.2721055 0.0020084
 12168.40417 0.2670442 0.0020667
 12180.58741 0.2638114 0.0021109
 12192.75522 0.2588014 0.0021604
 12204.95297 0.2562476 0.0022027
 12217.16615 0.2533120 0.0022416
 12229.37842 0.2521810 0.0022658
 12241.60681 0.2490291 0.0022940
 12253.84983 0.2485678 0.0023256
 12266.10736 0.2489777 0.0023322
 12278.37952 0.2503773 0.0023304
 12290.65168 0.2521687 0.0023517
 12302.93985 0.2544900 0.0023412
 12315.24116 0.2570781 0.0023248
 12327.55847 0.2601042 0.0023175
 12339.89178 0.2635231 0.0023041
 12352.22372 0.2664678 0.0023079
 12364.58629 0.2710066 0.0023110
 12376.94738 0.2734478 0.0023014
 12389.32447 0.2764499 0.0023368
 12401.71608 0.2794070 0.0023817
 12414.12391 0.2828263 0.0024337
 12426.53015 0.2836317 0.0024703
 12438.95239 0.2856968 0.0025513
 12451.40389 0.2874126 0.0026686
 12463.84076 0.2899249 0.0028334
 12476.30826 0.2924568 0.0030463
 12488.78890 0.2941259 0.0033355
 12501.28555 0.2960828 0.0036625
 12513.78231 0.2982550 0.0041076
 12526.29348 0.2999448 0.0046757
 12538.81939 0.3005307 0.0054364
 12551.36118 0.3001627 0.0063410
 12563.91761 0.2987446 0.0066531
