# SOURCE  = 'Quimby et al. 2018' /                                                
# OBJECT  = '2011ke  '           /                                                
# Z       = 0.142900 / wavelengths in OBSERVER FRAME (from rest frame x (1+z))
# NORM    =            0.0209052 / fluxes divided by norm                         
# CLIPPED =                    1 / galaxy emission lines removed                  
# SMOOTHED=                    1 / spectrum has been smoothed                     
# COLUMN01= 'Wavelength (Angstrom)' /                                             
# COLUMN02= 'Flux Density (erg/s/cm2/A)' /                                        
# COLUMN03= 'Flux Density Uncertainty (erg/s/cm2/A)' /                            
# END                                                                             
# 
# 
# 
# 
# 
# 
# 
# 
# 
# 
 5261.9782  1.5668064  0.0156928
 5267.2292  1.5576216  0.0153523
 5272.5064  1.5475340  0.0150459
 5277.7836  1.5506864  0.0147876
 5283.0607  1.5466872  0.0146200
 5288.3379  1.5376761  0.0144514
 5293.6279  1.5396188  0.0142093
 5298.9181  1.5411409  0.0140344
 5304.2215  1.5355625  0.0138597
 5309.5248  1.5361102  0.0136143
 5314.8281  1.5319719  0.0134361
 5320.1442  1.5302163  0.0132594
 5325.4737  1.5240309  0.0130806
 5330.7901  1.5276649  0.0128374
 5336.1323  1.5252692  0.0126624
 5341.4618  1.5219382  0.0124865
 5346.8044  1.5164158  0.0122499
 5352.1469  1.5148675  0.0120803
 5357.5019  1.5074857  0.0119109
 5362.8575  1.5056530  0.0116848
 5368.2266  1.5058814  0.0115243
 5373.5950  1.5017649  0.0113648
 5378.9633  1.5046812  0.0111527
 5384.3451  1.4972095  0.0110042
 5389.7269  1.4887049  0.0108575
 5395.1214  1.4901257  0.0106621
 5400.5160  1.4878523  0.0105278
 5405.9105  1.4822479  0.0103446
 5411.3185  1.4777758  0.0102366
 5416.7391  1.4755927  0.0101163
 5422.1471  1.4707352  0.0099527
 5427.5812  1.4672968  0.0098442
 5433.0018  1.4625727  0.0097399
 5438.4359  1.4672925  0.0095951
 5443.8694  1.4674902  0.0095029
 5449.3162  1.4660310  0.0093704
 5454.7637  1.4664865  0.0093077
 5460.2233  1.4647276  0.0092305
 5465.6835  1.4647425  0.0091164
 5471.1565  1.4587981  0.0090497
 5476.6167  1.4555812  0.0089468
 5482.1025  1.4549538  0.0088896
 5487.5754  1.4524488  0.0088380
 5493.0618  1.4453133  0.0087734
 5498.5610  1.4371700  0.0087307
 5504.0601  1.4256212  0.0086547
 5509.5592  1.4171610  0.0086209
 5515.0718  1.4088092  0.0085551
 5520.5837  1.4031181  0.0085552
 5526.1090  1.3978759  0.0085348
 5531.6342  1.3910663  0.0084827
 5537.1729  1.3841392  0.0084702
 5542.7110  1.3755817  0.0084541
 5548.2496  1.3652935  0.0084500
 5553.8011  1.3620585  0.0084154
 5559.3525  1.3534000  0.0084189
 5564.9167  1.3485126  0.0084214
 5570.4815  1.3457921  0.0084318
 5576.0457  1.3436378  0.0084123
 5581.6233  1.3412818  0.0084295
 5587.2009  1.3418300  0.0084820
 5592.7919  1.3465244  0.0084725
 5598.3822  1.3456129  0.0085002
 5603.9860  1.3500175  0.0085300
 5609.5897  1.3490779  0.0085633
 5615.1934  1.3485632  0.0085651
 5620.8099  1.3493246  0.0086393
 5626.4398  1.3493638  0.0086464
 5632.0569  1.3407829  0.0086898
 5637.6996  1.3331670  0.0087391
 5643.3295  1.3297068  0.0087875
 5648.9721  1.3292950  0.0088029
 5654.6282  1.3286695  0.0088598
 5660.2842  1.3343379  0.0089142
 5665.9402  1.3325285  0.0089345
 5671.6090  1.3277565  0.0090339
 5677.2778  1.3228455  0.0090568
 5682.9600  1.3225040  0.0091611
 5688.6422  1.3282520  0.0091859
 5694.3244  1.3292755  0.0092501
 5700.0193  1.3314074  0.0093207
 5705.7277  1.3376063  0.0093871
 5711.4226  1.3440045  0.0094600
 5717.1437  1.3546312  0.0095282
 5722.8520  1.3611709  0.0096027
 5728.5731  1.3700954  0.0096290
 5734.3076  1.3792598  0.0096981
 5740.0421  1.3881574  0.0097726
 5745.7893  1.3994453  0.0098424
 5751.5238  1.4096683  0.0099163
 5757.2838  1.4200801  0.0099384
 5763.0444  1.4403936  0.0100587
 5768.8051  1.4610984  0.0100779
 5774.5651  1.4750246  0.0100474
 5780.3519  1.4947553  0.0100625
 5786.1253  1.5090942  0.0100754
 5791.9120  1.5229547  0.0100860
 5797.7116  1.5445292  0.0100941
 5803.4984  1.5661378  0.0102032
 5809.3107  1.5842290  0.0102517
 5815.1102  1.6038038  0.0101157
 5820.9359  1.6283147  0.0100549
 5826.7488  1.6463571  0.0101184
 5832.5879  1.6662173  0.0102115
 5838.4136  1.6718723  0.0103143
 5844.2521  1.6934152  0.0104107
 5850.1039  1.7033567  0.0104868
 5855.9430  1.7120930  0.0104762
 5861.8076  1.7230368  0.0104691
 5867.6594  1.7351300  0.0104113
 5873.5374  1.7501779  0.0103177
 5879.4027  1.7545803  0.0101963
 5885.2807  1.7573456  0.0100582
 5891.1714  1.7583456  0.0099044
 5897.0628  1.7678840  0.0097760
 5902.9669  1.7674904  0.0096784
 5908.8577  1.7737110  0.0096357
 5914.7752  1.7817730  0.0096912
 5920.6921  1.7860802  0.0096354
 5926.6096  1.7917651  0.0094573
 5932.5393  1.7903419  0.0094125
 5938.4696  1.7921305  0.0094086
 5944.4133  1.7872832  0.0093122
 5950.3563  1.7761320  0.0092637
 5956.3000  1.7678099  0.0092145
 5962.2558  1.7600392  0.0091649
 5968.2257  1.7537230  0.0090669
 5974.1949  1.7468994  0.0090167
 5980.1647  1.7363247  0.0090037
 5986.1466  1.7240429  0.0089048
 5992.1292  1.7075760  0.0088533
 5998.1252  1.6997279  0.0088020
 6004.1206  1.6833922  0.0087510
 6010.1293  1.6732839  0.0086894
 6016.1374  1.6582285  0.0086383
 6022.1595  1.6482559  0.0085877
 6028.1810  1.6374699  0.0084920
 6034.2025  1.6256880  0.0084424
 6040.2374  1.6169060  0.0084297
 6046.2851  1.6071846  0.0083379
 6052.3334  1.5967637  0.0082909
 6058.3810  1.5852937  0.0082454
 6064.4421  1.5743642  0.0081941
 6070.5025  1.5663319  0.0081511
 6076.5763  1.5602160  0.0081101
 6082.6507  1.5500230  0.0080304
 6088.7372  1.5403250  0.0080274
 6094.8244  1.5290318  0.0079524
 6100.9244  1.5226246  0.0079202
 6107.0116  1.5131485  0.0079240
 6113.1243  1.5052054  0.0078576
 6119.2376  1.4910049  0.0078330
 6125.3637  1.4834114  0.0077730
 6131.4898  1.4769938  0.0077887
 6137.6159  1.4754030  0.0077732
 6143.7554  1.4668303  0.0077237
 6149.8949  1.4654465  0.0077501
 6156.0471  1.4643480  0.0077092
 6162.1994  1.4631540  0.0077072
 6168.3644  1.4602323  0.0077117
 6174.5428  1.4608299  0.0077175
 6180.7084  1.4586776  0.0076947
 6186.8868  1.4647027  0.0077465
 6193.0786  1.4649950  0.0077654
 6199.2698  1.4683425  0.0077571
 6205.4743  1.4699054  0.0078236
 6211.6789  1.4701706  0.0078252
 6217.8968  1.4748114  0.0079030
 6224.1013  1.4748276  0.0079146
 6230.3320  1.4740181  0.0079624
 6236.5621  1.4736221  0.0080248
 6242.8062  1.4727864  0.0080814
 6249.0496  1.4680839  0.0081540
 6255.2937  1.4639567  0.0082181
 6261.5506  1.4539239  0.0082541
 6267.8074  1.4456661  0.0083689
 6274.0770  1.4345225  0.0084095
 6280.3466  1.4258766  0.0084988
 6286.6296  1.4171486  0.0085720
 6292.9260  1.4067478  0.0086633
 6299.2218  1.4000484  0.0087369
 6305.5175  1.3967268  0.0087785
 6311.8139  1.3873276  0.0090082
 6318.1358  1.3855951  0.0089963
 6324.4450  1.3765455  0.0090140
 6330.7669  1.3768667  0.0090997
 6337.1022  1.3815708  0.0092356
 6343.4375  1.3808237  0.0093748
 6349.7855  1.3852714  0.0095377
 6356.1336  1.3825481  0.0096301
 6362.4950  1.3820950  0.0098034
 6368.8565  1.3781040  0.0098385
 6375.2179  1.3735147  0.0099322
 6381.6049  1.3704191  0.0098796
 6387.9797  1.3626906  0.0098314
 6394.3667  1.3601851  0.0097511
 6400.7677  1.3479747  0.0096389
 6407.1680  1.3381414  0.0094723
 6413.5684  1.3293436  0.0094004
 6419.9949  1.3244393  0.0092975
 6426.4086  1.3125689  0.0091947
 6432.8351  1.3066050  0.0092687
 6439.2750  1.3024955  0.0090903
 6445.7015  1.2917738  0.0089094
 6452.1542  1.2898232  0.0088047
 6458.6068  1.2874423  0.0086656
 6465.0595  1.2816654  0.0085137
 6471.5255  1.2823524  0.0083780
 6478.0043  1.2790986  0.0083147
 6484.4831  1.2793479  0.0081874
 6490.9619  1.2779939  0.0078217
 6497.4541  1.2783279  0.0076834
 6503.9591  1.2781146  0.0075371
 6510.4640  1.2760226  0.0074278
 6516.9690  1.2723491  0.0073122
 6523.4867  1.2704638  0.0072059
 6530.0050  1.2738897  0.0070388
 6536.5361  1.2784387  0.0068375
 6543.0800  1.2831693  0.0067159
 6549.6245  1.2825207  0.0064368
 6556.1683  1.2851686  0.0061342
 6562.7256  1.2917819  0.0058630
 6569.2828  1.2975492  0.0056579
 6575.8529  1.2999274  0.0054782
 6582.4363  1.3023664  0.0053047
 6589.0197  1.3038200  0.0051845
 6595.6165  1.3070072  0.0050496
 6602.1999  1.3080893  0.0049208
 6608.8094  1.3097937  0.0049478
 6615.4183  1.3102763  0.0046306
 6622.0279  1.3123192  0.0045081
 6628.6508  1.3154547  0.0043858
 6635.2859  1.3157043  0.0043045
 6641.9216  1.3153265  0.0042443
 6648.5573  1.3138762  0.0042023
 6655.2057  1.3159744  0.0041634
 6661.8676  1.3169619  0.0041608
 6668.5294  1.3191340  0.0042259
 6675.1913  1.3214490  0.0043090
 6681.8659  1.3242121  0.0041716
 6688.5539  1.3312728  0.0041602
 6695.2419  1.3390334  0.0041768
 6701.9427  1.3439469  0.0042130
 6708.6434  1.3494494  0.0042662
 6715.3442  1.3546331  0.0043160
 6722.0717  1.3606523  0.0044116
 6728.7852  1.3659039  0.0045527
 6735.5128  1.3721840  0.0048237
 6742.2525  1.3816438  0.0047458
 6748.9928  1.3896288  0.0048403
 6755.7458  1.3974903  0.0048907
 6762.4989  1.4009670  0.0049639
 6769.2653  1.4051529  0.0050300
 6776.0311  1.4105238  0.0050953
 6782.8110  1.4162939  0.0051700
 6789.5902  1.4196306  0.0052709
 6796.3821  1.4260205  0.0054309
 6803.1748  1.4307300  0.0056436
 6809.9801  1.4340959  0.0055782
 6816.7989  1.4390382  0.0056877
 6823.6042  1.4453388  0.0057930
 6830.4357  1.4468606  0.0058930
 6837.2672  1.4470375  0.0059871
 6844.0987  1.4441931  0.0060744
 6850.9430  1.4389004  0.0061546
 6857.8007  1.4384476  0.0062271
 6864.6583  1.4425144  0.0062919
 6871.5160  1.4457622  0.0063488
 6878.3870  1.4441010  0.0063980
 6885.2708  1.4453673  0.0064396
 6892.1546  1.4469084  0.0064742
 6899.0512  1.4484895  0.0065020
 6905.9484  1.4501160  0.0065235
 6912.8577  1.4486681  0.0065129
 6919.7677  1.4465972  0.0065226
 6926.6910  1.4476031  0.0065272
 6933.6137  1.4432671  0.0065274
 6940.5498  1.4471641  0.0065235
 6947.4860  1.4427967  0.0065160
 6954.4348  1.4447492  0.0065053
 6961.3971  1.4468443  0.0064920
 6968.3593  1.4483567  0.0064486
 6975.3216  1.4480096  0.0064310
 6982.2966  1.4511141  0.0064403
 6989.2850  1.4541090  0.0064884
 6996.2734  1.4560695  0.0063845
 7003.2746  1.4587190  0.0063534
 7010.2630  1.4594257  0.0063394
 7017.2775  1.4576845  0.0063712
 7024.3049  1.4585472  0.0064117
 7031.3194  1.4542865  0.0064527
 7038.3595  1.4535232  0.0064875
 7045.3874  1.4493339  0.0064791
 7052.4409  1.4456960  0.0064858
 7059.4944  1.4415107  0.0064942
 7066.5478  1.4359044  0.0064585
 7073.6147  1.4421095  0.0063864
 7080.6943  1.4374168  0.0063326
 7087.7739  1.4367361  0.0062782
 7094.8669  1.4356852  0.0062303
 7101.9593  1.4316911  0.0061741
 7109.0657  1.4269539  0.0061704
 7116.1714  1.4238697  0.0062520
 7123.2900  1.4165539  0.0063370
 7130.4091  1.4099865  0.0062147
 7137.5410  1.4052460  0.0062307
 7144.6729  1.3987076  0.0062479
 7151.8182  1.3897491  0.0062688
 7158.9763  1.3853533  0.0062873
 7166.1344  1.3785402  0.0063063
 7173.3052  1.3733300  0.0063020
 7180.4766  1.3695945  0.0063208
 7187.6609  1.3658119  0.0063669
 7194.8451  1.3604785  0.0063617
 7202.0420  1.3557111  0.0063790
 7209.2396  1.3577797  0.0063956
 7216.4500  1.3547657  0.0065198
 7223.6604  1.3509499  0.0064466
 7230.8835  1.3478396  0.0064154
 7238.1200  1.3419247  0.0064506
 7245.3565  1.3375461  0.0065283
 7252.6058  1.3299298  0.0065720
 7259.8557  1.3209943  0.0066331
 7267.1183  1.3168758  0.0066576
 7274.3938  1.3099817  0.0067262
 7281.6564  1.2998697  0.0067441
 7288.9452  1.2942564  0.0067033
 7296.2334  1.2868981  0.0066948
 7303.5356  1.2762039  0.0066148
 7310.8372  1.2655185  0.0065491
 7318.1388  1.2599919  0.0064697
 7325.4671  1.2490432  0.0063971
 7332.7948  1.2383007  0.0063055
 7340.1225  1.2299658  0.0062864
 7347.4637  1.2202523  0.0062530
 7354.8048  1.2177083  0.0063012
 7362.1586  1.2150605  0.0061657
 7369.5259  1.2104061  0.0061307
 7376.8925  1.2078351  0.0060663
 7384.2732  1.2071820  0.0060472
 7391.6660  1.2014109  0.0059779
 7399.0466  1.1981252  0.0059533
 7406.4528  1.1961890  0.0058793
 7413.8589  1.1907445  0.0058492
 7421.2651  1.1860932  0.0057706
 7428.6974  1.1824987  0.0058303
 7436.1170  1.1742131  0.0056818
 7443.5621  1.1666754  0.0055958
 7451.0078  1.1590205  0.0055396
 7458.4535  1.1509138  0.0054945
 7465.9120  1.1421483  0.0054923
 7473.3832  1.1352326  0.0054505
 7480.8550  1.1264271  0.0054370
 7488.3397  1.1219931  0.0053688
 7495.8243  1.1192873  0.0052966
 7503.3216  1.1132846  0.0052155
 7510.8197  1.1058379  0.0051081
 7518.3304  1.1035028  0.0049772
 7525.8539  1.0997508  0.0048768
 7533.3781  1.0907032  0.0047422
 7540.9150  1.0856830  0.0046219
 7548.4519  1.0785017  0.0045231
 7556.0016  1.0704556  0.0044272
 7563.5519  1.0674043  0.0043397
 7571.1278  1.0645918  0.0043192
 7578.6908  1.0646596  0.0042006
 7586.2800  1.0626761  0.0041143
 7593.8559  1.0613220  0.0040514
 7601.4585  1.0583894  0.0040650
 7609.0604  1.0595514  0.0039499
 7616.6624  1.0589864  0.0038610
 7624.2778  1.0642451  0.0038037
 7631.9065  1.0662640  0.0037666
 7639.5347  1.0663688  0.0037513
 7647.1762  1.0674975  0.0037550
 7654.8305  1.0652593  0.0037340
 7662.4847  1.0629969  0.0037175
 7670.1390  1.0605252  0.0036931
 7677.8201  1.0554487  0.0036472
 7685.4871  1.0516649  0.0036183
 7693.1809  1.0467469  0.0035590
 7700.8747  1.0413857  0.0035078
 7708.5685  1.0391612  0.0034579
 7716.2879  1.0375851  0.0034022
 7723.9951  1.0325305  0.0033811
 7731.7278  1.0257344  0.0033628
 7739.4605  1.0211536  0.0033715
 7747.1933  1.0145442  0.0034028
 7754.9394  1.0119021  0.0033921
 7762.6982  1.0091060  0.0033771
 7770.4571  1.0088449  0.0033896
 7778.2287  1.0076654  0.0034074
 7786.0144  1.0041252  0.0034281
 7793.7994  0.9981552  0.0034515
 7801.5844  0.9924475  0.0034626
 7809.3956  0.9896516  0.0034903
 7817.2068  0.9848561  0.0035200
 7825.0180  0.9797948  0.0035516
 7832.8419  0.9758031  0.0035694
 7840.6792  0.9722619  0.0036144
 7848.5165  0.9682292  0.0036501
 7856.3673  0.9686137  0.0036869
 7864.2307  0.9661825  0.0037244
 7872.0942  0.9598073  0.0037461
 7879.9704  0.9573625  0.0037845
 7887.8473  0.9580757  0.0038231
 7895.7369  0.9578032  0.0038618
 7903.6259  0.9561211  0.0039002
 7911.5289  0.9541490  0.0039382
 7919.4447  0.9522038  0.0039582
 7927.3605  0.9514257  0.0039945
 7935.2890  0.9454295  0.0040297
 7943.2309  0.9427510  0.0040635
 7951.1728  0.9389954  0.0040959
 7959.1275  0.9332883  0.0041265
 7967.0822  0.9250508  0.0041551
 7975.0503  0.9205738  0.0041816
 7983.0183  0.9155815  0.0042056
 7991.0126  0.9115938  0.0042100
 7999.0061  0.9044473  0.0042286
 8007.0004  0.9001255  0.0042442
 8015.0073  0.8955051  0.0042565
 8023.0277  0.8908593  0.0042504
 8031.0481  0.8897827  0.0042551
 8039.0812  0.8889332  0.0042879
 8047.1143  0.8884371  0.0044119
 8055.1609  0.8826554  0.0045748
 8063.2201  0.8851634  0.0042669
 8071.2794  0.8848417  0.0042410
 8079.3521  0.8860882  0.0042913
 8087.4375  0.8882913  0.0043614
 8095.5229  0.8946033  0.0044486
 8103.6218  0.9018239  0.0045251
 8111.7200  0.9064561  0.0045757
 8119.8315  0.9116800  0.0045886
 8127.9565  0.9181222  0.0045311
 8136.0815  0.9205776  0.0044262
 8144.2192  0.9294768  0.0042740
 8152.3697  0.9303709  0.0041270
 8160.5074  0.9379568  0.0039796
 8168.6713  0.9439394  0.0038435
 8176.8486  0.9502752  0.0037164
 8185.0252  0.9582072  0.0036602
 8193.2152  0.9635676  0.0036939
 8201.4052  0.9709081  0.0039009
 8209.6080  0.9755905  0.0036501
 8217.8115  0.9834753  0.0035292
 8226.0276  0.9877153  0.0035337
 8234.2566  0.9936725  0.0035641
 8242.4989  0.9994488  0.0036034
 8250.7412  1.0050584  0.0036611
 8258.9835  1.0127914  0.0037372
 8267.2520  1.0136133  0.0038020
 8275.5205  1.0154839  0.0038521
 8283.7883  1.0166619  0.0038996
 8292.0702  1.0173899  0.0039343
 8300.3648  1.0165251  0.0039550
 8308.6722  1.0136238  0.0039964
 8316.9796  1.0172791  0.0040219
 8325.2870  1.0158031  0.0040510
 8333.6212  1.0153874  0.0041049
 8341.9547  1.0176594  0.0041951
 8350.3016  1.0136029  0.0044027
 8358.6479  1.0117640  0.0046390
 8367.0076  1.0122112  0.0045752
 8375.3807  1.0153643  0.0047139
 8383.7404  1.0144600  0.0048861
 8392.1268  1.0165455  0.0050267
 8400.5254  1.0155886  0.0051779
 8408.9246  1.0158333  0.0053230
 8417.3366  1.0188783  0.0055069
 8425.7486  1.0142246  0.0056606
 8434.1867  1.0117652  0.0058027
 8442.6121  1.0081445  0.0059839
 8451.0502  1.0050368  0.0061179
 8459.5145  0.9963080  0.0062577
 8467.9654  0.9973693  0.0064112
 8476.4297  0.9946066  0.0065372
 8484.9074  0.9893841  0.0066401
 8493.3978  0.9894794  0.0067807
 8501.8882  0.9916346  0.0068619
 8510.3914  0.9866653  0.0069500
 8518.9080  0.9853464  0.0070377
 8527.4246  0.9896393  0.0071031
 8535.9546  0.9917439  0.0071357
 8544.4839  0.9934865  0.0072072
 8553.0266  0.9946575  0.0072157
 8561.5828  0.9929753  0.0072398
 8570.1510  0.9910359  0.0072496
 8578.7199  0.9903154  0.0072505
 8587.3022  0.9851497  0.0072407
 8595.8838  0.9821360  0.0071967
 8604.4788  0.9772132  0.0073371
 8613.0866  0.9738126  0.0071535
 8621.7078  0.9702773  0.0070802
 8630.3290  0.9621608  0.0070524
 8638.9502  0.9562967  0.0070328
 8647.5969  0.9530547  0.0069923
 8656.2442  0.9469116  0.0069940
 8664.9043  0.9412258  0.0069284
 8673.5650  0.9342417  0.0068951
 8682.2379  0.9293665  0.0067868
 8690.9247  0.9276063  0.0066717
 8699.6110  0.9236349  0.0065500
 8708.3100  0.9191734  0.0063991
 8717.0230  0.9112953  0.0062232
 8725.7354  0.9060646  0.0060607
 8734.4605  0.9002394  0.0059168
 8743.1991  0.8961375  0.0057652
 8751.9382  0.8879114  0.0056292
 8760.6895  0.8796458  0.0055248
 8769.4542  0.8710425  0.0054410
 8778.2189  0.8627057  0.0052642
 8787.0098  0.8557775  0.0051425
 8795.7878  0.8480508  0.0050470
 8804.5914  0.8425192  0.0049192
 8813.3957  0.8386586  0.0048043
 8822.2126  0.8346765  0.0046845
 8831.0296  0.8295792  0.0045774
 8839.8594  0.8289015  0.0044955
 8848.7025  0.8279575  0.0044093
 8857.5457  0.8274207  0.0043474
 8866.4149  0.8252895  0.0042157
 8875.2715  0.8238063  0.0041269
 8884.1535  0.8240809  0.0041404
 8893.0362  0.8211975  0.0040756
 8901.9310  0.8209015  0.0040186
 8910.8398  0.8207479  0.0039912
 8919.7480  0.8177931  0.0039896
 8928.6696  0.8098639  0.0039958
 8937.5912  0.8091740  0.0039893
 8946.5255  0.8061058  0.0039999
 8955.4733  0.8058436  0.0040637
 8964.4338  0.8002138  0.0040015
 8973.3949  0.7976495  0.0039366
 8982.3682  0.7972237  0.0039086
 8991.3554  0.7956482  0.0038990
 9000.3421  0.7942203  0.0039033
 9009.3549  0.7961851  0.0039232
 9018.3549  0.7928100  0.0039491
 9027.3805  0.7924438  0.0040204
 9036.4066  0.7914682  0.0040057
 9045.4328  0.7911329  0.0040399
 9054.4845  0.7884912  0.0040715
 9063.5369  0.7863806  0.0040480
 9072.6020  0.7888170  0.0040426
 9081.6804  0.7875281  0.0040934
 9090.7583  0.7834620  0.0041211
 9099.8495  0.7792510  0.0041267
 9108.9542  0.7827705  0.0041581
 9118.0588  0.7806809  0.0042121
 9127.1762  0.7797958  0.0043332
 9136.3064  0.7759629  0.0043209
 9145.4499  0.7747269  0.0042635
 9154.5934  0.7773595  0.0042111
 9163.7370  0.7772074  0.0041537
 9172.9067  0.7788542  0.0040575
 9182.0891  0.7773202  0.0039824
 9191.2588  0.7744659  0.0039167
 9200.4547  0.7752042  0.0038771
 9209.6639  0.7736533  0.0038693
 9218.8597  0.7729206  0.0037894
 9228.0817  0.7704484  0.0037327
 9237.3165  0.7695055  0.0036760
 9246.5512  0.7699457  0.0036523
 9255.7994  0.7692817  0.0036507
 9265.0603  0.7709292  0.0036458
 9274.3218  0.7725863  0.0035994
 9283.5961  0.7781355  0.0035761
 9292.8832  0.7821272  0.0035675
 9302.1702  0.7847242  0.0035627
 9311.4706  0.7879617  0.0035621
 9320.7838  0.7891994  0.0035658
 9330.1104  0.7910772  0.0035640
 9339.4370  0.7915350  0.0035770
 9348.7764  0.7938687  0.0036063
 9358.1285  0.7922249  0.0036283
 9367.4812  0.7905276  0.0036453
 9376.8601  0.7895405  0.0036748
 9386.2384  0.7869356  0.0037073
 9395.6173  0.7850266  0.0037334
 9405.0089  0.7811860  0.0037703
 9414.4267  0.7784404  0.0038086
 9423.8317  0.7772388  0.0038525
 9433.2623  0.7765626  0.0038915
 9442.6935  0.7745218  0.0039600
 9452.1374  0.7727199  0.0040255
 9461.5948  0.7742563  0.0040258
 9471.0515  0.7735465  0.0040257
 9480.5216  0.7698734  0.0040779
 9490.0051  0.7648387  0.0041527
 9499.5007  0.7581528  0.0042365
 9508.9969  0.7540588  0.0043904
 9518.5066  0.7528165  0.0043975
 9528.0290  0.7527951  0.0044131
 9537.5514  0.7462798  0.0044524
 9547.0865  0.7421284  0.0045538
 9556.6351  0.7418362  0.0045088
 9566.1964  0.7399896  0.0044736
 9575.7583  0.7382008  0.0044147
 9585.3330  0.7321085  0.0044358
 9594.9205  0.7238908  0.0042980
 9604.5213  0.7158672  0.0042022
 9614.1215  0.7056023  0.0041383
 9623.7358  0.6959057  0.0041486
 9633.3628  0.6884098  0.0041257
 9643.0025  0.6787462  0.0040217
 9652.6423  0.6692423  0.0039072
 9662.2954  0.6554778  0.0038349
 9671.9479  0.6428160  0.0037502
 9681.6272  0.6337640  0.0037037
 9691.3065  0.6279196  0.0036836
 9700.9986  0.6221560  0.0035931
 9710.7040  0.6159751  0.0035462
 9720.4088  0.6108888  0.0035238
 9730.1270  0.6101767  0.0035596
 9739.8586  0.6049034  0.0035040
 9749.6030  0.6025164  0.0035323
 9759.3607  0.5994382  0.0035678
 9769.1178  0.5953769  0.0036609
 9778.8883  0.5957519  0.0036855
 9788.6589  0.5942466  0.0037266
 9798.4555  0.5931326  0.0037818
 9808.2522  0.5928152  0.0038796
 9818.0622  0.5921646  0.0039689
 9827.8850  0.5914071  0.0040875
 9837.7078  0.5945002  0.0042022
 9847.5434  0.5933627  0.0043338
 9857.3923  0.5975213  0.0044467
 9867.2540  0.6034611  0.0045815
 9877.1164  0.6098054  0.0046818
 9886.9915  0.6133553  0.0047884
 9896.8793  0.6190902  0.0048602
 9906.7806  0.6254593  0.0049478
 9916.6818  0.6288112  0.0050138
 9926.6092  0.6314610  0.0050529
 9936.5360  0.6366783  0.0051072
 9946.4768  0.6443553  0.0051587
 9956.4170  0.6554653  0.0052400
 9966.3705  0.6660116  0.0053723
 9976.3368  0.6705610  0.0053164
 9986.3165  0.6777632  0.0053549
 9996.3090  0.6820166  0.0053804
 10006.3015  0.6921648  0.0053992
 10016.3073  0.7005693  0.0054080
 10026.3259  0.7106479  0.0053912
 10036.3445  0.7140896  0.0053816
 10046.3893  0.7216809  0.0053630
 10056.4340  0.7280981  0.0054072
 10066.4922  0.7323655  0.0053325
 10076.5631  0.7346690  0.0052621
 10086.6340  0.7354795  0.0052199
 10096.7311  0.7362688  0.0052495
 10106.8154  0.7356798  0.0051646
 10116.9252  0.7341761  0.0051061
 10127.0484  0.7306378  0.0050701
 10137.1716  0.7314780  0.0050279
 10147.3082  0.7285213  0.0049849
 10157.4576  0.7247025  0.0049243
 10167.6197  0.7224306  0.0048487
 10177.7818  0.7209176  0.0048099
 10187.9573  0.7127712  0.0046158
 10198.1462  0.7024143  0.0044641
 10208.3479  0.6946768  0.0043373
 10218.5495  0.6838047  0.0042162
 10228.7767  0.6726754  0.0040981
 10239.0045  0.6600304  0.0039840
 10249.2457  0.6475973  0.0038779
 10259.4990  0.6317910  0.0037470
 10269.7530  0.6181002  0.0036130
 10280.0197  0.6019958  0.0034851
 10290.3132  0.5879747  0.0033726
 10300.5927  0.5714670  0.0032417
 10310.8989  0.5562251  0.0031160
 10321.2052  0.5386509  0.0029822
 10331.5376  0.5220191  0.0028708
 10341.8693  0.5073134  0.0027674
 10352.2018  0.4933806  0.0026735
 10362.5603  0.4797437  0.0026351
 10372.9182  0.4656954  0.0025257
 10383.2895  0.4535502  0.0024313
 10393.6743  0.4413736  0.0023570
 10404.0717  0.4306450  0.0023042
 10414.4692  0.4203834  0.0022574
 10424.8928  0.4111285  0.0022024
 10435.3164  0.4011788  0.0021384
 10445.7534  0.3928325  0.0020800
 10456.2032  0.3857216  0.0020216
 10466.6529  0.3772892  0.0019652
 10477.1289  0.3701658  0.0019241
 10487.6048  0.3629645  0.0018789
 10498.0807  0.3571132  0.0018435
 10508.5821  0.3507624  0.0018111
 10519.0976  0.3432999  0.0018119
 10529.6124  0.3364337  0.0017811
 10540.1540  0.3286934  0.0017610
 10550.6816  0.3238744  0.0017614
 10561.2359  0.3163494  0.0017709
 10571.8037  0.3088410  0.0017970
 10582.3708  0.3023466  0.0018366
 10592.9513  0.2953511  0.0018769
 10603.5446  0.2885409  0.0018782
 10614.1512  0.2817496  0.0019161
 10624.7707  0.2765735  0.0019567
 10635.3901  0.2721055  0.0020084
 10646.0229  0.2670442  0.0020667
 10656.6819  0.2638114  0.0021109
 10667.3274  0.2588014  0.0021604
 10677.9991  0.2562476  0.0022027
 10688.6843  0.2533120  0.0022416
 10699.3687  0.2521810  0.0022658
 10710.0672  0.2490291  0.0022940
 10720.7785  0.2485678  0.0023256
 10731.5025  0.2489777  0.0023322
 10742.2393  0.2503773  0.0023304
 10752.9761  0.2521687  0.0023517
 10763.7269  0.2544900  0.0023412
 10774.4892  0.2570781  0.0023248
 10785.2655  0.2601042  0.0023175
 10796.0558  0.2635231  0.0023041
 10806.8449  0.2664678  0.0023079
 10817.6608  0.2710066  0.0023110
 10828.4754  0.2734478  0.0023014
 10839.3040  0.2764499  0.0023368
 10850.1453  0.2794070  0.0023817
 10861.0008  0.2828263  0.0024337
 10871.8549  0.2836317  0.0024703
 10882.7230  0.2856968  0.0025513
 10893.6167  0.2874126  0.0026686
 10904.4976  0.2899249  0.0028334
 10915.4053  0.2924568  0.0030463
 10926.3245  0.2941259  0.0033355
 10937.2577  0.2960828  0.0036625
 10948.1910  0.2982550  0.0041076
 10959.1369  0.2999448  0.0046757
 10970.0957  0.3005307  0.0054364
 10981.0684  0.3001627  0.0063410
 10992.0539  0.2987446  0.0066531
