# SOURCE  = 'Quimby et al. 2018' /                                                
# OBJECT  = '2011ke  '           /                                                
# Z       = 0.142900 / wavelengths in OBSERVER FRAME (from rest frame x (1+z))
# NORM    =          1.96360E-18 / fluxes divided by norm                         
# CLIPPED =                    1 / galaxy emission lines removed                  
# SMOOTHED=                    1 / spectrum has been smoothed                     
# COLUMN01= 'Wavelength (Angstrom)' /                                             
# COLUMN02= 'Flux Density (erg/s/cm2/A)' /                                        
# COLUMN03= 'Flux Density Uncertainty (erg/s/cm2/A)' /                            
# END                                                                             
# 
# 
# 
# 
# 
# 
# 
# 
# 
# 
 3620.7253  3.9237559  0.6120732
 3624.3566  3.8371429  0.5936861
 3627.9749  3.8030279  0.5762684
 3631.6062  3.6806819  0.5597750
 3635.2376  3.6522377  0.5422252
 3638.8689  3.6704197  0.5274659
 3642.5133  3.7150619  0.5135700
 3646.1574  3.7730379  0.5004466
 3649.8018  3.6714745  0.4837812
 3653.4462  3.5784032  0.4721496
 3657.1037  3.5125673  0.4610489
 3660.7611  3.4201188  0.4469306
 3664.4186  3.3378930  0.4370068
 3668.0889  3.3415668  0.4275855
 3671.7594  3.2977130  0.4186674
 3675.4300  3.3134990  0.4073363
 3679.1005  3.3626590  0.3993608
 3682.7838  3.4015958  0.3916405
 3686.4675  3.3507361  0.3826619
 3690.1511  3.3747864  0.3754300
 3693.8344  3.4582634  0.3683378
 3697.5311  3.3753612  0.3590415
 3701.2278  3.3860023  0.3525651
 3704.9373  3.3661008  0.3463611
 3708.6340  3.4734714  0.3381347
 3712.3438  3.4936771  0.3320808
 3716.0663  3.5067298  0.3261882
 3719.7761  3.4786503  0.3204575
 3723.4990  3.5430491  0.3130544
 3727.2215  3.5297294  0.3077673
 3730.9443  3.5050066  0.3026528
 3734.6800  3.5423543  0.2964060
 3738.4159  3.5021608  0.2912409
 3742.1518  3.4472427  0.2865165
 3745.9005  3.4232111  0.2806845
 3749.6364  3.4553409  0.2762183
 3753.3851  3.4282329  0.2718780
 3757.1472  3.3636148  0.2662672
 3760.8959  3.3487861  0.2622470
 3764.6580  3.3091969  0.2582889
 3768.4328  3.3369591  0.2530876
 3772.1949  3.3152027  0.2493180
 3775.9697  3.3308661  0.2446637
 3779.7446  3.3744590  0.2409643
 3783.5197  3.4027381  0.2374624
 3787.3076  3.3821175  0.2330495
 3791.0959  3.4155383  0.2297948
 3794.8838  3.3740759  0.2266881
 3798.6848  3.3572931  0.2226504
 3802.4861  3.3200305  0.2196657
 3806.2870  3.2800736  0.2166781
 3810.0880  3.2672958  0.2127306
 3813.9024  3.3105884  0.2098812
 3817.7165  3.3442307  0.2061253
 3821.5305  3.3032622  0.2033939
 3825.3580  3.2827055  0.2008067
 3829.1851  3.2687097  0.1975754
 3833.0123  3.2355306  0.1949698
 3836.8397  3.2275939  0.1924410
 3840.6799  3.2072139  0.1891726
 3844.5201  3.1587927  0.1867520
 3848.3604  3.1558051  0.1836659
 3852.2136  3.1641567  0.1814446
 3856.0673  3.1602683  0.1793332
 3859.9205  3.1802526  0.1765963
 3863.7869  3.1794336  0.1746833
 3867.6402  3.1868622  0.1721793
 3871.5065  3.1493022  0.1703625
 3875.3863  3.1582401  0.1685658
 3879.2657  3.1557562  0.1662398
 3883.1452  3.1573913  0.1645659
 3887.0246  3.1628554  0.1623803
 3890.9171  3.1543963  0.1608541
 3894.7966  3.1299541  0.1594449
 3898.7021  3.1253071  0.1576366
 3902.5947  3.1396921  0.1563099
 3906.5002  3.1368096  0.1544633
 3910.4058  3.1153793  0.1531442
 3914.3114  3.0863583  0.1513940
 3918.2301  3.1132042  0.1500977
 3922.1487  3.1130514  0.1487738
 3926.0674  3.0863762  0.1469789
 3929.9991  3.0707836  0.1456998
 3933.9309  3.0657589  0.1440005
 3937.8626  3.0570636  0.1428424
 3941.7943  3.0377183  0.1413240
 3945.7392  3.0648062  0.1402392
 3949.6840  3.0673006  0.1388102
 3953.6419  3.0773640  0.1378801
 3957.5867  3.0897131  0.1370807
 3961.5445  3.0778930  0.1358335
 3965.5155  3.0781729  0.1349918
 3969.4731  3.0744815  0.1339069
 3973.4440  3.0519655  0.1331507
 3977.4150  3.0450127  0.1320653
 3981.3990  3.0556672  0.1313562
 3985.3831  3.0518820  0.1304034
 3989.3668  3.0492864  0.1297091
 3993.3508  3.0375762  0.1286632
 3997.3479  3.0111990  0.1280792
 4001.3450  2.9367938  0.1270480
 4005.3422  2.9227879  0.1263508
 4009.3520  2.9459112  0.1253882
 4013.3622  2.9416976  0.1246623
 4017.3724  2.9355996  0.1235908
 4021.3953  2.9325745  0.1230252
 4025.4186  2.9102523  0.1220028
 4029.4419  2.8895152  0.1213302
 4033.4648  2.8600285  0.1204169
 4037.5011  2.8512485  0.1197427
 4041.5375  2.8527219  0.1187272
 4045.5866  2.8386703  0.1181580
 4049.6229  2.8329170  0.1171588
 4053.6723  2.8139555  0.1165164
 4057.7345  2.7795138  0.1156892
 4061.7970  2.7627175  0.1150865
 4065.8461  2.7747912  0.1142070
 4069.9216  2.7839668  0.1137647
 4073.9838  2.7795434  0.1128777
 4078.0593  2.7672355  0.1122945
 4082.1346  2.7407088  0.1115205
 4086.2232  2.7555931  0.1109506
 4090.3115  2.7606986  0.1100456
 4094.4002  2.7393501  0.1095834
 4098.4885  2.7212815  0.1087559
 4102.5902  2.7049270  0.1079459
 4106.6916  2.6872127  0.1075307
 4110.8064  2.6826410  0.1067288
 4114.9078  2.6631818  0.1062060
 4119.0222  2.6622050  0.1054488
 4123.1501  2.6522055  0.1049014
 4127.2646  2.6681690  0.1041913
 4131.3924  2.6734028  0.1036602
 4135.5330  2.6561227  0.1028274
 4139.6606  2.6364484  0.1021205
 4143.8015  2.6293044  0.1015891
 4147.9552  2.6065555  0.1007998
 4152.0958  2.6179354  0.1003871
 4156.2495  2.6168249  0.0996343
 4160.4035  2.6134338  0.0992483
 4164.5703  2.6249616  0.0985054
 4168.7371  2.6175759  0.0977558
 4172.9038  2.6240084  0.0973813
 4177.0709  2.6152318  0.0966424
 4181.2508  2.6077716  0.0962778
 4185.4306  2.6194639  0.0955631
 4189.6235  2.6186152  0.0948639
 4193.8034  2.6251316  0.0945173
 4197.9966  2.6177700  0.0938346
 4202.2026  2.6104679  0.0935019
 4206.3955  2.6132300  0.0928185
 4210.6146  2.6130755  0.0921791
 4214.8206  2.6034112  0.0918828
 4219.0396  2.6152868  0.0912082
 4223.2587  2.6247859  0.0908519
 4227.4778  2.6180718  0.0901802
 4231.7099  2.6240797  0.0895038
 4235.9420  2.6119363  0.0891354
 4240.1742  2.5975268  0.0884441
 4244.4194  2.5916488  0.0878303
 4248.6646  2.5914047  0.0873962
 4252.9098  2.5996373  0.0868257
 4257.1550  2.6050377  0.0864034
 4261.4133  2.6113000  0.0858514
 4265.6847  2.6062777  0.0852249
 4269.9430  2.5961785  0.0848408
 4274.2144  2.5871568  0.0843752
 4278.4857  2.5688460  0.0838220
 4282.7702  2.5491049  0.0835306
 4287.0546  2.5303757  0.0829563
 4291.3391  2.5254316  0.0824803
 4295.6366  2.5328219  0.0821585
 4299.9207  2.5394371  0.0817725
 4304.2313  2.5559740  0.0812865
 4308.5288  2.5614214  0.0809830
 4312.8394  2.5458031  0.0803273
 4317.1500  2.5423689  0.0796999
 4321.4733  2.5324907  0.0793691
 4325.7970  2.5428178  0.0787597
 4330.1207  2.5483172  0.0783049
 4334.4443  2.5558455  0.0780049
 4338.7807  2.5566325  0.0776336
 4343.1175  2.5559363  0.0771997
 4347.4673  2.5438530  0.0768456
 4351.8171  2.5448527  0.0765810
 4356.1666  2.5542519  0.0762084
 4360.5164  2.5481133  0.0757201
 4364.8793  2.5405507  0.0755185
 4369.2419  2.5339296  0.0750986
 4373.6179  2.5380976  0.0748093
 4377.9935  2.5196140  0.0744478
 4382.3695  2.5075331  0.0743278
 4386.7454  2.4977217  0.0739630
 4391.1342  2.4951766  0.0736845
 4395.5232  2.4975371  0.0734758
 4399.9250  2.4905019  0.0731893
 4404.3271  2.4653349  0.0728034
 4408.7289  2.4462514  0.0725041
 4413.1441  2.4441245  0.0722798
 4417.5590  2.4439116  0.0719719
 4421.9742  2.4375575  0.0716562
 4426.3890  2.4128106  0.0712492
 4430.8173  2.4150677  0.0711043
 4435.2453  2.4045060  0.0706933
 4439.6863  2.3942494  0.0703775
 4444.1276  2.3872032  0.0699869
 4448.5686  2.3698406  0.0696738
 4453.0231  2.3655949  0.0694390
 4457.4641  2.3496449  0.0691035
 4461.9312  2.3426838  0.0687050
 4466.3857  2.3462141  0.0684019
 4470.8528  2.3447165  0.0682590
 4475.3331  2.3332567  0.0678818
 4479.8006  2.3219252  0.0675910
 4484.2808  2.3141425  0.0672342
 4488.7611  2.3264148  0.0669645
 4493.2544  2.3326645  0.0667640
 4497.7480  2.3299668  0.0664859
 4502.2544  2.3241653  0.0662480
 4506.7477  2.3359456  0.0659075
 4511.2541  2.3361828  0.0656176
 4515.7736  2.3406422  0.0654204
 4520.2803  2.3357389  0.0651686
 4524.7998  2.3320384  0.0648617
 4529.3323  2.3258762  0.0646373
 4533.8649  2.3184104  0.0644223
 4538.3974  2.3144975  0.0641345
 4542.9300  2.3256145  0.0640568
 4547.4756  2.3129644  0.0637835
 4552.0212  2.3108664  0.0635962
 4556.5802  2.3097260  0.0634131
 4561.1389  2.2981305  0.0631477
 4565.6976  2.3013041  0.0629661
 4570.2563  2.2946186  0.0629292
 4574.8281  2.2812550  0.0628119
 4579.3999  2.2764833  0.0626419
 4583.9847  2.2739906  0.0623907
 4588.5696  2.2831857  0.0622228
 4593.1544  2.2893558  0.0620626
 4597.7520  2.2808752  0.0619307
 4602.3499  2.2771115  0.0618885
 4606.9479  2.2656829  0.0618458
 4611.5589  2.2558963  0.0615874
 4616.1699  2.2416956  0.0614253
 4620.7939  2.2430267  0.0611875
 4625.4049  2.2334237  0.0610628
 4630.0290  2.2250295  0.0609275
 4634.6658  2.2301700  0.0607186
 4639.3030  2.2425120  0.0606045
 4643.9401  2.2515860  0.0605985
 4648.5773  2.2662358  0.0603953
 4653.2275  2.2608194  0.0602735
 4657.8774  2.2478495  0.0601143
 4662.5407  2.2354152  0.0598599
 4667.2040  2.2241161  0.0597032
 4671.8800  2.2169189  0.0595725
 4676.5433  2.2086501  0.0593715
 4681.2197  2.2088881  0.0592641
 4685.9088  2.1917415  0.0591672
 4690.5852  2.1864412  0.0590527
 4695.2746  2.1792712  0.0588302
 4699.9768  2.1779439  0.0586879
 4704.6794  2.1724749  0.0586554
 4709.3819  2.1687419  0.0584160
 4714.0972  2.1705575  0.0582429
 4718.7997  2.1573825  0.0580817
 4723.5280  2.1735346  0.0578631
 4728.2436  2.1760228  0.0577250
 4732.9720  2.1772337  0.0575823
 4737.7137  2.1575887  0.0574338
 4742.4421  2.1515017  0.0572279
 4747.1838  2.1559241  0.0571116
 4751.9383  2.1618261  0.0569772
 4756.6931  2.1573467  0.0567603
 4761.4476  2.1557908  0.0566223
 4766.2155  2.1572855  0.0564798
 4770.9700  2.1446779  0.0563288
 4775.7507  2.1449158  0.0561053
 4780.5186  2.1478322  0.0559494
 4785.2992  2.1375394  0.0557930
 4790.0930  2.1449971  0.0556424
 4794.8739  2.1554494  0.0554243
 4799.6807  2.1278009  0.0552758
 4804.4745  2.1291525  0.0551324
 4809.2816  2.1358676  0.0549827
 4814.0884  2.1330280  0.0547617
 4818.9083  2.1403749  0.0546076
 4823.7151  2.1412277  0.0544555
 4828.5483  2.1596396  0.0543218
 4833.3682  2.1649406  0.0541962
 4838.2142  2.1556673  0.0540045
 4843.0472  2.1482332  0.0538875
 4847.8932  2.1393161  0.0537794
 4852.7396  2.1454558  0.0536804
 4857.5856  2.1538780  0.0535177
 4862.4447  2.1362598  0.0533302
 4867.3169  2.1203232  0.0532277
 4872.1760  2.1173928  0.0531311
 4877.0482  2.1226828  0.0530207
 4881.9334  2.1075113  0.0528513
 4886.8056  2.1015670  0.0527788
 4891.7039  2.0983112  0.0527073
 4896.5892  2.0902791  0.0526345
 4901.4875  2.0783942  0.0525658
 4906.3858  2.0828550  0.0525078
 4911.2972  2.0692682  0.0523813
 4916.2086  2.0607982  0.0523385
 4921.1200  2.0455737  0.0522240
 4926.0445  2.0503376  0.0521906
 4930.9690  2.0272408  0.0521661
 4935.9065  2.0200670  0.0521562
 4940.8310  2.0297053  0.0520702
 4945.7816  2.0220349  0.0520780
 4950.7192  2.0142775  0.0520891
 4955.6695  2.0154555  0.0520080
 4960.6332  2.0094502  0.0519946
 4965.5969  2.0088229  0.0519029
 4970.5606  1.9998045  0.0519008
 4975.5243  1.9984623  0.0518157
 4980.5007  1.9938869  0.0517307
 4985.4906  1.9884028  0.0517330
 4990.4674  1.9771301  0.0516508
 4995.4572  1.9781328  0.0516325
 5000.4598  1.9825575  0.0515331
 5005.4628  1.9709551  0.0515137
 5010.4657  1.9823277  0.0514914
 5015.4683  1.9911932  0.0513939
 5020.4843  1.9756628  0.0513734
 5025.5134  1.9670463  0.0513530
 5030.5421  1.9645807  0.0512558
 5035.5712  1.9608481  0.0512464
 5040.6000  1.9515631  0.0512238
 5045.6421  1.9456012  0.0512075
 5050.6839  1.9491450  0.0511930
 5055.7392  1.9449883  0.0510971
 5060.7941  1.9539264  0.0510807
 5065.8624  1.9584432  0.0510649
 5070.9173  1.9572752  0.0510514
 5075.9987  1.9571744  0.0510035
 5081.0666  1.9649675  0.0508730
 5086.1480  1.9731333  0.0508347
 5091.2422  1.9687058  0.0507947
 5096.3366  1.9753383  0.0507474
 5101.4307  1.9836713  0.0506306
 5106.5249  1.9867625  0.0506003
 5111.6324  1.9890639  0.0505741
 5116.7527  1.9803145  0.0505522
 5121.8599  1.9800707  0.0504664
 5126.9936  1.9812651  0.0504600
 5132.1138  1.9910327  0.0504532
 5137.2472  2.0129418  0.0504428
 5142.3809  2.0166550  0.0503379
 5147.5273  2.0156536  0.0503205
 5152.6737  2.0173316  0.0503116
 5157.8332  2.0138013  0.0502914
 5162.9800  2.0041919  0.0501903
 5168.1526  2.0158703  0.0501690
 5173.3121  2.0299065  0.0501539
 5178.4847  2.0207307  0.0500556
 5183.6703  2.0283051  0.0500396
 5188.8560  2.0187013  0.0500173
 5194.0416  2.0160360  0.0499115
 5199.2407  2.0283456  0.0499613
 5204.4394  2.0203426  0.0499181
 5209.6381  2.0146821  0.0498804
 5214.8500  2.0136151  0.0497675
 5220.0618  2.0048783  0.0497401
 5225.2866  1.9888637  0.0497176
 5230.5115  1.9828840  0.0496127
 5235.7364  1.9739844  0.0495882
 5240.9744  1.9768765  0.0495610
 5246.2123  1.9751793  0.0494578
 5251.4634  1.9715403  0.0494295
 5256.7144  1.9570298  0.0493934
 5261.9782  1.9446168  0.0492710
 5267.2292  1.9443572  0.0492269
 5272.5064  1.9372110  0.0491097
 5277.7836  1.9319681  0.0490701
 5283.0607  1.9167504  0.0490286
 5288.3379  1.9049879  0.0489120
 5293.6279  1.9114989  0.0489395
 5298.9181  1.8949625  0.0489046
 5304.2215  1.8946224  0.0488001
 5309.5248  1.8936869  0.0488450
 5314.8281  1.8823915  0.0487188
 5320.1442  1.8784959  0.0486697
 5325.4737  1.8784761  0.0486223
 5330.7901  1.8740457  0.0484911
 5336.1323  1.8720115  0.0484435
 5341.4618  1.8683387  0.0483284
 5346.8044  1.8783829  0.0483553
 5352.1469  1.8717102  0.0482371
 5357.5019  1.8721092  0.0482012
 5362.8575  1.8705268  0.0481719
 5368.2266  1.8660825  0.0480705
 5373.5950  1.8607726  0.0480432
 5378.9633  1.8529141  0.0479502
 5384.3451  1.8457775  0.0479328
 5389.7269  1.8380909  0.0479172
 5395.1214  1.8400395  0.0479082
 5400.5160  1.8283180  0.0478252
 5405.9105  1.8380556  0.0478091
 5411.3185  1.8287878  0.0477287
 5416.7391  1.8219832  0.0477250
 5422.1471  1.8313130  0.0476624
 5427.5812  1.8157439  0.0477309
 5433.0018  1.8086762  0.0477341
 5438.4359  1.8101416  0.0476785
 5443.8694  1.8107674  0.0476883
 5449.3162  1.7972910  0.0476354
 5454.7637  1.7956032  0.0477214
 5460.2233  1.7963036  0.0476706
 5465.6835  1.8020225  0.0476206
 5471.1565  1.7862936  0.0476365
 5476.6167  1.7792920  0.0475838
 5482.1025  1.7731057  0.0476797
 5487.5754  1.7666377  0.0476364
 5493.0618  1.7572032  0.0475861
 5498.5610  1.7624115  0.0475237
 5504.0601  1.7497520  0.0475321
 5509.5592  1.7407986  0.0475394
 5515.0718  1.7420772  0.0475462
 5520.5837  1.7295778  0.0474849
 5526.1090  1.7217306  0.0474911
 5531.6342  1.7183566  0.0475047
 5537.1729  1.7164279  0.0474444
 5542.7110  1.7198447  0.0474475
 5548.2496  1.7218539  0.0473812
 5553.8011  1.7231460  0.0474518
 5559.3525  1.7202507  0.0473948
 5564.9167  1.7032206  0.0473330
 5570.4815  1.7023782  0.0473331
 5576.0457  1.6912900  0.0473352
 5581.6233  1.6914628  0.0473308
 5587.2009  1.6962347  0.0472625
 5592.7919  1.6922803  0.0472035
 5598.3822  1.6931093  0.0472823
 5603.9860  1.6789706  0.0472230
 5609.5897  1.6841757  0.0472304
 5615.1934  1.6574105  0.0472448
 5620.8099  1.6532507  0.0471929
 5626.4398  1.6563574  0.0472086
 5632.0569  1.6575531  0.0471622
 5637.6996  1.6638476  0.0470997
 5643.3295  1.6566944  0.0471054
 5648.9721  1.6469151  0.0470461
 5654.6282  1.6500601  0.0470527
 5660.2842  1.6564802  0.0470585
 5665.9402  1.6536011  0.0469991
 5671.6090  1.6555353  0.0470100
 5677.2778  1.6538411  0.0470143
 5682.9600  1.6509157  0.0469511
 5688.6422  1.6463327  0.0469614
 5694.3244  1.6463802  0.0469107
 5700.0193  1.6506675  0.0469960
 5705.7277  1.6540294  0.0469611
 5711.4226  1.6543784  0.0469318
 5717.1437  1.6559469  0.0470385
 5722.8520  1.6628227  0.0470109
 5728.5731  1.6673745  0.0469834
 5734.3076  1.6666524  0.0470262
 5740.0421  1.6728897  0.0470585
 5745.7893  1.6693232  0.0470966
 5751.5238  1.6692588  0.0469936
 5757.2838  1.6717585  0.0469506
 5763.0444  1.6750525  0.0470344
 5768.8051  1.6738561  0.0469883
 5774.5651  1.6751529  0.0470111
 5780.3519  1.6706166  0.0469727
 5786.1253  1.6830138  0.0469852
 5791.9120  1.6895390  0.0469993
 5797.7116  1.6830664  0.0469653
 5803.4984  1.6735107  0.0469988
 5809.3107  1.6676706  0.0470194
 5815.1102  1.6702619  0.0470480
 5820.9359  1.6710593  0.0470129
 5826.7488  1.6727686  0.0469820
 5832.5879  1.6717498  0.0470160
 5838.4136  1.6689306  0.0469830
 5844.2521  1.6606989  0.0470770
 5850.1039  1.6702422  0.0470506
 5855.9430  1.6631776  0.0470980
 5861.8076  1.6587663  0.0470894
 5867.6594  1.6621656  0.0471402
 5873.5374  1.6580859  0.0471795
 5879.4027  1.6544104  0.0472296
 5885.2807  1.6440473  0.0472137
 5891.1714  1.6423825  0.0472667
 5897.0628  1.6462123  0.0472515
 5902.9669  1.6488661  0.0473018
 5908.8577  1.6367151  0.0472862
 5914.7752  1.6292952  0.0473439
 5920.6921  1.6196101  0.0473913
 5926.6096  1.6126958  0.0474570
 5932.5393  1.6156744  0.0474619
 5938.4696  1.6147636  0.0475402
 5944.4133  1.6051546  0.0475449
 5950.3563  1.6012725  0.0476300
 5956.3000  1.5899392  0.0476514
 5962.2558  1.5863558  0.0477438
 5968.2257  1.5886075  0.0477724
 5974.1949  1.5770417  0.0478762
 5980.1647  1.5839869  0.0479891
 5986.1466  1.5802970  0.0480810
 5992.1292  1.5824817  0.0481987
 5998.1252  1.5819105  0.0482465
 6004.1206  1.5778507  0.0483760
 6010.1293  1.5731332  0.0484280
 6016.1374  1.5677007  0.0485563
 6022.1595  1.5704113  0.0486852
 6028.1810  1.5808452  0.0487422
 6034.2025  1.5733232  0.0488795
 6040.2374  1.5695844  0.0489400
 6046.2851  1.5675581  0.0490830
 6052.3334  1.5560827  0.0492271
 6058.3810  1.5596101  0.0492904
 6064.4421  1.5579072  0.0494334
 6070.5025  1.5555021  0.0495030
 6076.5763  1.5358213  0.0496520
 6082.6507  1.5536869  0.0498019
 6088.7372  1.5599473  0.0498753
 6094.8244  1.5411884  0.0500274
 6100.9244  1.5344213  0.0504325
 6107.0116  1.5293525  0.0507812
 6113.1243  1.5313253  0.0511266
 6119.2376  1.5382799  0.0511154
 6125.3637  1.5362930  0.0511464
 6131.4898  1.5408286  0.0513965
 6137.6159  1.5415807  0.0514779
 6143.7554  1.5371972  0.0513933
 6149.8949  1.5314287  0.0514275
 6156.0471  1.5330595  0.0515056
 6162.1994  1.5350192  0.0515461
 6168.3644  1.5352613  0.0516822
 6174.5428  1.5307382  0.0519060
 6180.7084  1.5296323  0.0520911
 6186.8868  1.5256408  0.0522158
 6193.0786  1.5366230  0.0524272
 6199.2698  1.5301276  0.0526695
 6205.4743  1.5235710  0.0528609
 6211.6789  1.5179234  0.0531467
 6217.8968  1.5190860  0.0534477
 6224.1013  1.5243213  0.0538026
 6230.3320  1.5282062  0.0542652
 6236.5621  1.5222481  0.0547241
 6242.8062  1.5144559  0.0551171
 6249.0496  1.5160748  0.0555191
 6255.2937  1.5230230  0.0557485
 6261.5506  1.5295117  0.0559932
 6267.8074  1.5154003  0.0563276
 6274.0770  1.4938282  0.0567186
 6280.3466  1.4923099  0.0572346
 6286.6296  1.4879514  0.0578158
 6292.9260  1.4993582  0.0585374
 6299.2218  1.4942158  0.0589171
 6305.5175  1.4912192  0.0591496
 6311.8139  1.4744687  0.0593897
 6318.1358  1.4710259  0.0597955
 6324.4450  1.4695292  0.0602479
 6330.7669  1.4769592  0.0607478
 6337.1022  1.4743985  0.0612693
 6343.4375  1.4730316  0.0618110
 6349.7855  1.4840159  0.0621973
 6356.1336  1.4823468  0.0627169
 6362.4950  1.4787142  0.0632279
 6368.8565  1.4909784  0.0644843
 6375.2179  1.5095456  0.0649420
 6381.6049  1.5103008  0.0653571
 6387.9797  1.4914689  0.0657819
 6394.3667  1.4917988  0.0661734
 6400.7677  1.4886317  0.0663902
 6407.1680  1.4811291  0.0665603
 6413.5684  1.4956834  0.0666792
 6419.9949  1.5213090  0.0666096
 6426.4086  1.5222747  0.0666053
 6432.8351  1.5098433  0.0665337
 6439.2750  1.5091403  0.0664168
 6445.7015  1.5099399  0.0662589
 6452.1542  1.4874161  0.0660009
 6458.6068  1.4952695  0.0657169
 6465.0595  1.4840559  0.0653603
 6471.5255  1.4861774  0.0651035
 6478.0043  1.4654828  0.0650224
 6484.4831  1.4656392  0.0643576
 6490.9619  1.4666237  0.0636299
 6497.4541  1.4563856  0.0628832
 6503.9591  1.4450786  0.0621817
 6510.4640  1.4406050  0.0614436
 6516.9690  1.4388124  0.0607160
 6523.4867  1.4460051  0.0600355
 6530.0050  1.4375913  0.0586215
 6536.5361  1.4228189  0.0577677
 6543.0800  1.4152552  0.0571212
 6549.6245  1.4061850  0.0564881
 6556.1683  1.4067434  0.0558655
 6562.7256  1.3954095  0.0552822
 6569.2828  1.3794531  0.0547501
 6575.8529  1.3757265  0.0541644
 6582.4363  1.3686070  0.0537017
 6589.0197  1.3533747  0.0533031
 6595.6165  1.3311436  0.0529846
 6602.1999  1.3287520  0.0527318
 6608.8094  1.3237399  0.0520834
 6615.4183  1.3245819  0.0513795
 6622.0279  1.3057877  0.0508086
 6628.6508  1.2928188  0.0504276
 6635.2859  1.2835948  0.0500463
 6641.9216  1.2865530  0.0495508
 6648.5573  1.2828028  0.0491033
 6655.2057  1.2729121  0.0487428
 6661.8676  1.2739317  0.0484073
 6668.5294  1.2675889  0.0480967
 6675.1913  1.2630552  0.0478079
 6681.8659  1.2617358  0.0475212
 6688.5539  1.2503130  0.0472616
 6695.2419  1.2379214  0.0470241
 6701.9427  1.2343704  0.0471721
 6708.6434  1.2230606  0.0472349
 6715.3442  1.2262948  0.0468836
 6722.0717  1.2262409  0.0466046
 6728.7852  1.2380131  0.0462907
 6735.5128  1.2256132  0.0461490
 6742.2525  1.2117403  0.0460129
 6748.9928  1.2108853  0.0455334
 6755.7458  1.2044715  0.0452608
 6762.4989  1.2009189  0.0450571
 6769.2653  1.1811353  0.0448540
 6776.0311  1.1754599  0.0446365
 6782.8110  1.1536177  0.0446042
 6789.5902  1.1596184  0.0445889
 6796.3821  1.1554466  0.0445413
 6803.1748  1.1590754  0.0444302
 6809.9801  1.1607741  0.0441262
 6816.7989  1.1521589  0.0437894
 6823.6042  1.1467375  0.0435990
 6830.4357  1.1401345  0.0435112
 6837.2672  1.1362014  0.0433634
 6844.0987  1.1382375  0.0432818
 6850.9430  1.1468135  0.0432550
 6857.8007  1.1487172  0.0431692
 6864.6583  1.1481369  0.0430853
 6871.5160  1.1479052  0.0429723
 6878.3870  1.1459212  0.0428430
 6885.2708  1.1457648  0.0427678
 6892.1546  1.1469105  0.0426617
 6899.0512  1.1411794  0.0425121
 6905.9484  1.1319358  0.0424137
 6912.8577  1.1254169  0.0422918
 6919.7677  1.1430733  0.0421844
 6926.6910  1.1445456  0.0421507
 6933.6137  1.1392221  0.0420110
 6940.5498  1.1465750  0.0418110
 6947.4860  1.1488240  0.0415362
 6954.4348  1.1319884  0.0413849
 6961.3971  1.1293103  0.0412666
 6968.3593  1.1220348  0.0410254
 6975.3216  1.1260704  0.0408928
 6982.2966  1.1184962  0.0407681
 6989.2850  1.1237696  0.0407968
 6996.2734  1.1173624  0.0408247
 7003.2746  1.1134056  0.0408243
 7010.2630  1.1243721  0.0405872
 7017.2775  1.1316462  0.0402430
 7024.3049  1.1364582  0.0399488
 7031.3194  1.1393319  0.0396636
 7038.3595  1.1506153  0.0394879
 7045.3874  1.1479166  0.0392620
 7052.4409  1.1497149  0.0391546
 7059.4944  1.1491349  0.0389744
 7066.5478  1.1398523  0.0388356
 7073.6147  1.1320232  0.0386604
 7080.6943  1.1315657  0.0388127
 7087.7739  1.1389292  0.0387308
 7094.8669  1.1306484  0.0386702
 7101.9593  1.1231890  0.0385975
 7109.0657  1.1134351  0.0384297
 7116.1714  1.1067632  0.0382869
 7123.2900  1.1011441  0.0382008
 7130.4091  1.0898981  0.0379909
 7137.5410  1.0884457  0.0379047
 7144.6729  1.0906630  0.0378082
 7151.8182  1.0919617  0.0375026
 7158.9763  1.0838797  0.0372929
 7166.1344  1.0740236  0.0370689
 7173.3052  1.0714611  0.0369588
 7180.4766  1.0712484  0.0368856
 7187.6609  1.0723208  0.0368307
 7194.8451  1.0646605  0.0366990
 7202.0420  1.0650449  0.0366757
 7209.2396  1.0683666  0.0366870
 7216.4500  1.0583643  0.0367131
 7223.6604  1.0573587  0.0367017
 7230.8835  1.0541466  0.0366761
 7238.1200  1.0486807  0.0366190
 7245.3565  1.0421262  0.0366279
 7252.6058  1.0339404  0.0366232
 7259.8557  1.0261427  0.0363871
 7267.1183  1.0328329  0.0361056
 7274.3938  1.0297945  0.0360908
 7281.6564  1.0247031  0.0359839
 7288.9452  1.0115041  0.0358897
 7296.2334  1.0048074  0.0358992
 7303.5356  0.9970530  0.0359344
 7310.8372  0.9897680  0.0359322
 7318.1388  0.9832772  0.0359411
 7325.4671  0.9784357  0.0358842
 7332.7948  0.9683305  0.0356020
 7340.1225  0.9543632  0.0354161
 7347.4637  0.9638903  0.0352162
 7354.8048  0.9592714  0.0350559
 7362.1586  0.9437775  0.0349751
 7369.5259  0.9295585  0.0348405
 7376.8925  0.9205539  0.0348221
 7384.2732  0.9216541  0.0348240
 7391.6660  0.9256415  0.0345454
 7399.0466  0.9370724  0.0342786
 7406.4528  0.9417390  0.0340787
 7413.8589  0.9368150  0.0338715
 7421.2651  0.9388798  0.0336549
 7428.6974  0.9307836  0.0334389
 7436.1170  0.9351094  0.0333528
 7443.5621  0.9365830  0.0332421
 7451.0078  0.9382752  0.0331831
 7458.4535  0.9425743  0.0330225
 7465.9120  0.9375120  0.0328755
 7473.3832  0.9420289  0.0326770
 7480.8550  0.9483420  0.0325248
 7488.3397  0.9571131  0.0323477
 7495.8243  0.9479130  0.0322601
 7503.3216  0.9497969  0.0320653
 7510.8197  0.9572126  0.0319559
 7518.3304  0.9577639  0.0318460
 7525.8539  0.9570845  0.0316774
 7533.3781  0.9615886  0.0315747
 7540.9150  0.9575123  0.0314202
 7548.4519  0.9614522  0.0314425
 7556.0016  0.9589050  0.0314327
 7563.5519  0.9587962  0.0312948
 7571.1278  0.9671063  0.0311800
 7578.6908  0.9766079  0.0309480
 7586.2800  0.9765221  0.0307283
 7593.8559  0.9654436  0.0304891
 7601.4585  0.9661585  0.0303295
 7609.0604  0.9672636  0.0301728
 7616.6624  0.9616331  0.0300543
 7624.2778  0.9509636  0.0298941
 7631.9065  0.9448384  0.0297676
 7639.5347  0.9417408  0.0297311
 7647.1762  0.9326740  0.0296255
 7654.8305  0.9318072  0.0298195
 7662.4847  0.9294804  0.0298942
 7670.1390  0.9292675  0.0299290
 7677.8201  0.9257830  0.0298108
 7685.4871  0.9271582  0.0297173
 7693.1809  0.9242293  0.0295401
 7700.8747  0.9217849  0.0293900
 7708.5685  0.9219153  0.0290646
 7716.2879  0.9162228  0.0287777
 7723.9951  0.9206519  0.0285612
 7731.7278  0.9210198  0.0283850
 7739.4605  0.9234709  0.0282364
 7747.1933  0.9208717  0.0281586
 7754.9394  0.9153122  0.0281127
 7762.6982  0.9112096  0.0280824
 7770.4571  0.9092004  0.0280561
 7778.2287  0.9055778  0.0280028
 7786.0144  0.9033043  0.0279757
 7793.7994  0.8993599  0.0279391
 7801.5844  0.8924430  0.0279123
 7809.3956  0.8890231  0.0278732
 7817.2068  0.8800524  0.0277817
 7825.0180  0.8743285  0.0277400
 7832.8419  0.8673508  0.0277064
 7840.6792  0.8594294  0.0276647
 7848.5165  0.8547919  0.0276286
 7856.3673  0.8497691  0.0275834
 7864.2307  0.8428613  0.0275370
 7872.0942  0.8284866  0.0274685
 7879.9704  0.8222629  0.0274435
 7887.8473  0.8194660  0.0274260
 7895.7369  0.8130651  0.0273823
 7903.6259  0.8038731  0.0273396
 7911.5289  0.8026465  0.0272034
 7919.4447  0.7893347  0.0269948
 7927.3605  0.7779794  0.0268187
 7935.2890  0.7716048  0.0266530
 7943.2309  0.7732881  0.0265286
 7951.1728  0.7716355  0.0264403
 7959.1275  0.7667023  0.0264762
 7967.0822  0.7643822  0.0264410
 7975.0503  0.7722358  0.0262462
 7983.0183  0.7773942  0.0260193
 7991.0126  0.7828679  0.0257395
 7999.0061  0.7829925  0.0255688
 8007.0004  0.7813102  0.0254182
 8015.0073  0.7869607  0.0251285
 8023.0277  0.7926352  0.0249129
 8031.0481  0.7978420  0.0247344
 8039.0812  0.8019765  0.0245463
 8047.1143  0.8031948  0.0244282
 8055.1609  0.8054007  0.0242377
 8063.2201  0.8069198  0.0240502
 8071.2794  0.8108677  0.0238840
 8079.3521  0.8128525  0.0236614
 8087.4375  0.8142043  0.0235121
 8095.5229  0.8184071  0.0233933
 8103.6218  0.8183392  0.0233255
 8111.7200  0.8153184  0.0231911
 8119.8315  0.8193430  0.0230542
 8127.9565  0.8241656  0.0230069
 8136.0815  0.8155585  0.0229385
 8144.2192  0.8114663  0.0228729
 8152.3697  0.8037289  0.0228719
 8160.5074  0.8039258  0.0228996
 8168.6713  0.8024640  0.0229207
 8176.8486  0.8010976  0.0228543
 8185.0252  0.7972087  0.0227977
 8193.2152  0.7958311  0.0227771
 8201.4052  0.7923748  0.0227873
 8209.6080  0.7857946  0.0228183
 8217.8115  0.7803901  0.0228662
 8226.0276  0.7792019  0.0229606
 8234.2566  0.7739463  0.0230978
 8242.4989  0.7698339  0.0232781
 8250.7412  0.7693219  0.0234774
 8258.9835  0.7605638  0.0233865
 8267.2520  0.7593612  0.0234543
 8275.5205  0.7567690  0.0235626
 8283.7883  0.7645414  0.0235628
 8292.0702  0.7672775  0.0236180
 8300.3648  0.7698612  0.0235920
 8308.6722  0.7719703  0.0233802
 8316.9796  0.7690043  0.0233197
 8325.2870  0.7658395  0.0233230
 8333.6212  0.7598484  0.0232377
 8341.9547  0.7613097  0.0232241
 8350.3016  0.7578024  0.0233663
 8358.6479  0.7581769  0.0235242
 8367.0076  0.7559518  0.0236634
 8375.3807  0.7466654  0.0237214
 8383.7404  0.7388151  0.0238299
 8392.1268  0.7333345  0.0239068
 8400.5254  0.7296850  0.0239136
 8408.9246  0.7292978  0.0238430
 8417.3366  0.7300909  0.0237652
 8425.7486  0.7304687  0.0236573
 8434.1867  0.7231347  0.0235670
 8442.6121  0.7241436  0.0235079
 8451.0502  0.7195752  0.0234593
 8459.5145  0.7139515  0.0234684
 8467.9654  0.7146441  0.0234675
 8476.4297  0.7087495  0.0235504
 8484.9074  0.7038241  0.0236465
 8493.3978  0.7044533  0.0236989
 8501.8882  0.7016935  0.0237137
 8510.3914  0.6988883  0.0236919
 8518.9080  0.6985981  0.0237953
 8527.4246  0.6963774  0.0238799
 8535.9546  0.6875056  0.0239180
 8544.4839  0.6808528  0.0239134
 8553.0266  0.6826695  0.0239686
 8561.5828  0.6853170  0.0239843
 8570.1510  0.6837511  0.0241225
 8578.7199  0.6905397  0.0241753
 8587.3022  0.6939258  0.0242761
 8595.8838  0.7011117  0.0243815
 8604.4788  0.7040430  0.0244897
 8613.0866  0.7137864  0.0245056
 8621.7078  0.7195747  0.0245401
 8630.3290  0.7191125  0.0244868
 8638.9502  0.7245963  0.0245666
 8647.5969  0.7295021  0.0246398
 8656.2442  0.7306250  0.0246967
 8664.9043  0.7319731  0.0246288
 8673.5650  0.7368660  0.0245656
 8682.2379  0.7331946  0.0244992
 8690.9247  0.7337378  0.0244111
 8699.6110  0.7314965  0.0244506
 8708.3100  0.7296318  0.0244886
 8717.0230  0.7322845  0.0243800
 8725.7354  0.7276198  0.0243076
 8734.4605  0.7237406  0.0241922
 8743.1991  0.7219632  0.0240382
 8751.9382  0.7161801  0.0239962
 8760.6895  0.7159145  0.0239737
 8769.4542  0.7104706  0.0239101
 8778.2189  0.7062184  0.0237787
 8787.0098  0.7032947  0.0237741
 8795.7878  0.6991860  0.0236962
 8804.5914  0.6902727  0.0236035
 8813.3957  0.6842681  0.0235420
 8822.2126  0.6814795  0.0235205
 8831.0296  0.6792942  0.0234433
 8839.8594  0.6717649  0.0232752
 8848.7025  0.6681597  0.0232022
 8857.5457  0.6662766  0.0231729
 8866.4149  0.6620141  0.0231600
 8875.2715  0.6601528  0.0231262
 8884.1535  0.6524404  0.0231296
 8893.0362  0.6418619  0.0232021
 8901.9310  0.6378267  0.0232304
 8910.8398  0.6370609  0.0231373
 8919.7480  0.6351450  0.0230278
 8928.6696  0.6314498  0.0228212
 8937.5912  0.6331065  0.0226348
 8946.5255  0.6326067  0.0226174
 8955.4733  0.6280922  0.0225877
 8964.4338  0.6265339  0.0225268
 8973.3949  0.6227254  0.0224859
 8982.3682  0.6183850  0.0223727
 8991.3554  0.6130355  0.0222861
 9000.3421  0.6031836  0.0222507
 9009.3549  0.5966867  0.0222767
 9018.3549  0.5906360  0.0222253
 9027.3805  0.5810528  0.0222597
 9036.4066  0.5767112  0.0223846
 9045.4328  0.5789630  0.0223843
 9054.4845  0.5789230  0.0221171
 9063.5369  0.5758519  0.0219222
 9072.6020  0.5815362  0.0217586
 9081.6804  0.5828756  0.0215360
 9090.7583  0.5791434  0.0213269
 9099.8495  0.5790463  0.0212075
 9108.9542  0.5745022  0.0211551
 9118.0588  0.5748730  0.0210835
 9127.1762  0.5729430  0.0209549
 9136.3064  0.5710794  0.0208554
 9145.4499  0.5649478  0.0206460
 9154.5934  0.5623351  0.0204405
 9163.7370  0.5629146  0.0203043
 9172.9067  0.5605055  0.0203063
 9182.0891  0.5644044  0.0203328
 9191.2588  0.5657997  0.0202784
 9200.4547  0.5639902  0.0202996
 9209.6639  0.5597685  0.0202109
 9218.8597  0.5641155  0.0201416
 9228.0817  0.5650138  0.0201286
 9237.3165  0.5663292  0.0200282
 9246.5512  0.5744094  0.0196772
 9255.7994  0.5805023  0.0194978
 9265.0603  0.5829974  0.0194101
 9274.3218  0.5805430  0.0192903
 9283.5961  0.5907191  0.0190955
 9292.8832  0.5907826  0.0190896
 9302.1702  0.5958775  0.0190519
 9311.4706  0.6014787  0.0190436
 9320.7838  0.6073463  0.0189779
 9330.1104  0.6121436  0.0189847
 9339.4370  0.6086988  0.0190634
 9348.7764  0.6106720  0.0191508
 9358.1285  0.6067671  0.0191604
 9367.4812  0.6043605  0.0192026
 9376.8601  0.6042688  0.0192214
 9386.2384  0.6066560  0.0193148
 9395.6173  0.6064178  0.0193863
 9405.0089  0.6104100  0.0194971
 9414.4267  0.6145155  0.0196158
 9423.8317  0.6120811  0.0196846
 9433.2623  0.6099381  0.0197347
 9442.6935  0.6085243  0.0198119
 9452.1374  0.6115419  0.0199361
 9461.5948  0.6142150  0.0200208
 9471.0515  0.6161202  0.0201552
 9480.5216  0.6176638  0.0203672
 9490.0051  0.6156787  0.0204604
 9499.5007  0.6159925  0.0205752
 9508.9969  0.6158485  0.0206709
 9518.5066  0.6164010  0.0207130
 9528.0290  0.6144604  0.0208002
 9537.5514  0.6118006  0.0208474
 9547.0865  0.6108789  0.0207183
 9556.6351  0.6075656  0.0204988
 9566.1964  0.6024261  0.0203629
 9575.7583  0.6048117  0.0202424
 9585.3330  0.6013677  0.0201286
 9594.9205  0.5970311  0.0199563
 9604.5213  0.5944065  0.0198252
 9614.1215  0.5854264  0.0197325
 9623.7358  0.5827875  0.0196612
 9633.3628  0.5824379  0.0196784
 9643.0025  0.5801450  0.0196562
 9652.6423  0.5746462  0.0196116
 9662.2954  0.5672332  0.0194700
 9671.9479  0.5627525  0.0193325
 9681.6272  0.5570072  0.0192420
 9691.3065  0.5444472  0.0190623
 9700.9986  0.5441555  0.0189540
 9710.7040  0.5403628  0.0189138
 9720.4088  0.5368429  0.0187546
 9730.1270  0.5330036  0.0186297
 9739.8586  0.5266871  0.0184599
 9749.6030  0.5270654  0.0183843
 9759.3607  0.5260097  0.0182225
 9769.1178  0.5202810  0.0182262
 9778.8883  0.5203319  0.0180971
 9788.6589  0.5165985  0.0180400
 9798.4555  0.5127983  0.0178925
 9808.2522  0.5067791  0.0178877
 9818.0622  0.5017609  0.0178095
 9827.8850  0.4961414  0.0177775
 9837.7078  0.4903662  0.0177899
 9847.5434  0.4876022  0.0178608
 9857.3923  0.4817468  0.0178714
 9867.2540  0.4809443  0.0178018
 9877.1164  0.4793400  0.0178016
 9886.9915  0.4768109  0.0177839
 9896.8793  0.4751024  0.0178873
 9906.7806  0.4738680  0.0179542
 9916.6818  0.4759442  0.0181474
 9926.6092  0.4720060  0.0183566
 9936.5360  0.4716111  0.0184160
 9946.4768  0.4709953  0.0184053
 9956.4170  0.4688289  0.0183455
 9966.3705  0.4699312  0.0182473
 9976.3368  0.4703981  0.0182176
 9986.3165  0.4675851  0.0181694
 9996.3090  0.4658840  0.0181397
 10006.3015  0.4655309  0.0180696
 10016.3073  0.4651299  0.0180905
 10026.3259  0.4636536  0.0180646
 10036.3445  0.4633807  0.0180401
 10046.3893  0.4659066  0.0179971
 10056.4340  0.4591689  0.0180216
 10066.4922  0.4599953  0.0180045
 10076.5631  0.4557470  0.0179964
 10086.6340  0.4539828  0.0179821
 10096.7311  0.4540055  0.0179337
 10106.8154  0.4444395  0.0178818
 10116.9252  0.4467552  0.0177616
 10127.0484  0.4423793  0.0176484
 10137.1716  0.4418099  0.0176017
 10147.3082  0.4481539  0.0175277
 10157.4576  0.4494942  0.0174309
 10167.6197  0.4480940  0.0173617
 10177.7818  0.4489520  0.0172493
 10187.9573  0.4464992  0.0171304
 10198.1462  0.4419450  0.0170587
 10208.3479  0.4383095  0.0170097
 10218.5495  0.4400391  0.0169690
 10228.7767  0.4421099  0.0169779
 10239.0045  0.4402909  0.0170400
 10249.2457  0.4407504  0.0171170
 10259.4990  0.4401837  0.0171096
 10269.7530  0.4395171  0.0170339
 10280.0197  0.4371586  0.0168673
 10290.3132  0.4365952  0.0166737
 10300.5927  0.4398936  0.0164753
 10310.8989  0.4395904  0.0164255
 10321.2052  0.4394906  0.0162695
 10331.5376  0.4412601  0.0160707
 10341.8693  0.4412973  0.0158857
 10352.2018  0.4384272  0.0157749
 10362.5603  0.4390037  0.0156857
 10372.9182  0.4374630  0.0155849
 10383.2895  0.4389147  0.0155476
 10393.6743  0.4355773  0.0154958
 10404.0717  0.4310912  0.0154529
 10414.4692  0.4321184  0.0154509
 10424.8928  0.4324363  0.0154819
 10435.3164  0.4326162  0.0153835
 10445.7534  0.4332300  0.0153766
 10456.2032  0.4354643  0.0153058
 10466.6529  0.4368145  0.0153724
 10477.1289  0.4371063  0.0153873
 10487.6048  0.4336424  0.0154119
 10498.0807  0.4394362  0.0155090
 10508.5821  0.4392826  0.0155863
 10519.0976  0.4404121  0.0156403
 10529.6124  0.4425760  0.0156880
 10540.1540  0.4405793  0.0157600
 10550.6816  0.4435437  0.0159350
 10561.2359  0.4408116  0.0160295
 10571.8037  0.4399331  0.0162556
 10582.3708  0.4407990  0.0163591
 10592.9513  0.4388747  0.0165471
 10603.5446  0.4395789  0.0166573
 10614.1512  0.4385865  0.0168792
 10624.7707  0.4402641  0.0169448
 10635.3901  0.4445798  0.0171943
 10646.0229  0.4463106  0.0174193
 10656.6819  0.4477387  0.0176144
 10667.3274  0.4512187  0.0177210
 10677.9991  0.4545364  0.0179237
 10688.6843  0.4530903  0.0181592
 10699.3687  0.4521999  0.0183167
 10710.0672  0.4509409  0.0184460
 10720.7785  0.4487600  0.0184682
 10731.5025  0.4532873  0.0186472
 10742.2393  0.4499170  0.0188525
 10752.9761  0.4523808  0.0189878
 10763.7269  0.4550602  0.0191701
 10774.4892  0.4485802  0.0192734
 10785.2655  0.4453376  0.0193729
 10796.0558  0.4412447  0.0194328
 10806.8449  0.4408574  0.0194910
 10817.6608  0.4413154  0.0195336
 10828.4754  0.4404310  0.0196333
 10839.3040  0.4396953  0.0196047
 10850.1453  0.4391389  0.0197196
 10861.0008  0.4382846  0.0198135
 10871.8549  0.4351801  0.0198758
 10882.7230  0.4336225  0.0199699
 10893.6167  0.4331919  0.0200150
 10904.4976  0.4357164  0.0200472
 10915.4053  0.4416918  0.0200044
 10926.3245  0.4390406  0.0199514
 10937.2577  0.4338822  0.0199868
 10948.1910  0.4360085  0.0200590
 10959.1369  0.4312469  0.0200558
 10970.0957  0.4323902  0.0200449
 10981.0684  0.4365397  0.0199402
 10992.0539  0.4291389  0.0199020
 11003.0395  0.4266432  0.0199564
 11014.0505  0.4256980  0.0199979
 11025.0615  0.4236782  0.0200456
 11036.0866  0.4237336  0.0200983
 11047.1244  0.4265993  0.0202411
 11058.1750  0.4328910  0.0204436
 11069.2383  0.4323262  0.0206460
 11080.3016  0.4336747  0.0208607
 11091.3790  0.4333680  0.0208255
 11102.4691  0.4289888  0.0208078
 11113.5720  0.4301492  0.0208652
 11124.6876  0.4317935  0.0209071
 11135.8160  0.4333823  0.0210585
 11146.9584  0.4361900  0.0212769
 11158.1008  0.4300081  0.0215920
 11169.2560  0.4280186  0.0216005
 11180.4239  0.4268504  0.0217278
 11191.6046  0.4233880  0.0220219
 11202.7993  0.4213617  0.0222742
 11214.0068  0.4227065  0.0225948
 11225.2143  0.4233508  0.0228173
 11236.4473  0.4234718  0.0231292
 11247.6815  0.4182611  0.0232612
 11258.9273  0.4193497  0.0235211
 11270.1871  0.4226345  0.0237405
 11281.4596  0.4247077  0.0240719
 11292.7461  0.4197089  0.0242896
 11304.0314  0.4213397  0.0247112
 11315.3435  0.4170642  0.0249362
 11326.6556  0.4121745  0.0253865
 11337.9804  0.4106910  0.0255293
 11349.3180  0.4096920  0.0259559
 11360.6696  0.4146997  0.0263838
 11372.0327  0.4120880  0.0268210
 11383.3971  0.4128995  0.0272290
 11394.7882  0.4115925  0.0275054
 11406.1909  0.4053737  0.0280731
 11417.5808  0.4060757  0.0287383
 11429.0102  0.4022831  0.0295150
 11440.4396  0.4029979  0.0301829
 11451.8831  0.3940456  0.0309182
 11463.3380  0.3927393  0.0316223
 11474.7942  0.3955410  0.0325616
 11486.2747  0.3954342  0.0337755
 11497.7564  0.3989538  0.0351291
 11509.2522  0.3902003  0.0365328
 11520.7594  0.3907628  0.0379781
 11532.2934  0.3791794  0.0393608
 11543.8147  0.3736359  0.0412207
 11555.3615  0.3654592  0.0429789
 11566.9210  0.3596071  0.0451497
 11578.4946  0.3579272  0.0472534
 11590.0682  0.3524798  0.0498545
 11601.6532  0.3495071  0.0525212
 11613.2536  0.3469216  0.0561458
 11624.8782  0.3467373  0.0598645
 11636.4900  0.3470328  0.0638304
