# SOURCE  = 'Quimby et al. 2018' /                                                
# OBJECT  = '2011ke  '           /                                                
# Z       = 0.142900 / wavelengths in OBSERVER FRAME (from rest frame x (1+z))
# NORM    =          1.56690E-16 / fluxes divided by norm                         
# CLIPPED =                    1 / galaxy emission lines removed                  
# SMOOTHED=                    1 / spectrum has been smoothed                     
# COLUMN01= 'Wavelength (Angstrom)' /                                             
# COLUMN02= 'Flux Density (erg/s/cm2/A)' /                                        
# COLUMN03= 'Flux Density Uncertainty (erg/s/cm2/A)' /                            
# END                                                                             
# 
# 
# 
# 
# 
# 
# 
# 
# 
# 
 3798.6848  0.9484505  0.0403189
 3802.4861  0.9573517  0.0394817
 3806.2870  0.9690019  0.0387244
 3810.0880  0.9688286  0.0380322
 3813.9024  0.9640138  0.0374424
 3817.7165  0.9661873  0.0367500
 3821.5305  0.9379956  0.0363586
 3825.3580  0.9143560  0.0361853
 3829.1851  0.9219626  0.0361552
 3833.0123  0.9105229  0.0362990
 3836.8397  0.9053187  0.0355464
 3840.6799  0.9170983  0.0347423
 3844.5201  0.9464027  0.0343974
 3848.3604  0.9720599  0.0337099
 3852.2136  0.9966449  0.0330140
 3856.0673  0.9953246  0.0322983
 3859.9205  0.9989269  0.0317733
 3863.7869  1.0212289  0.0312280
 3867.6402  1.0277139  0.0308424
 3871.5065  1.0308913  0.0302975
 3875.3863  1.0163941  0.0299740
 3879.2657  1.0066069  0.0296117
 3883.1452  0.9894859  0.0292527
 3887.0246  0.9703537  0.0288202
 3890.9171  0.9630290  0.0285488
 3894.7966  0.9488856  0.0283242
 3898.7021  0.9258537  0.0281595
 3902.5947  0.9176267  0.0279472
 3906.5002  0.9146297  0.0278791
 3910.4058  0.9028128  0.0276732
 3914.3114  0.9066216  0.0274174
 3918.2301  0.9086841  0.0270092
 3922.1487  0.9099146  0.0268150
 3926.0674  0.9149138  0.0266334
 3929.9991  0.9154480  0.0265240
 3933.9309  0.9143499  0.0261748
 3937.8626  0.9095343  0.0259792
 3941.7943  0.9003021  0.0257755
 3945.7392  0.9002984  0.0254536
 3949.6840  0.8970494  0.0252127
 3953.6419  0.8773521  0.0250786
 3957.5867  0.8635101  0.0248882
 3961.5445  0.8582565  0.0245079
 3965.5155  0.8550662  0.0242922
 3969.4731  0.8436396  0.0241310
 3973.4440  0.8358670  0.0239445
 3977.4150  0.8465377  0.0237525
 3981.3990  0.8647667  0.0234801
 3985.3831  0.8730535  0.0230790
 3989.3668  0.8911211  0.0227378
 3993.3508  0.9244828  0.0224084
 3997.3479  0.9593500  0.0219186
 4001.3450  0.9651973  0.0216263
 4005.3422  0.9712271  0.0213820
 4009.3520  0.9853678  0.0210383
 4013.3622  1.0017309  0.0208566
 4017.3724  1.0075951  0.0206840
 4021.3953  1.0116632  0.0204695
 4025.4186  1.0154393  0.0203740
 4029.4419  1.0118428  0.0203225
 4033.4648  1.0129919  0.0201434
 4037.5011  1.0120473  0.0200273
 4041.5375  1.0068020  0.0199312
 4045.5866  1.0147617  0.0197917
 4049.6229  1.0089890  0.0197158
 4053.6723  1.0058960  0.0196736
 4057.7345  1.0168608  0.0194622
 4061.7970  1.0099499  0.0193255
 4065.8461  1.0007145  0.0189821
 4069.9216  1.0072778  0.0187701
 4073.9838  1.0025297  0.0185528
 4078.0593  1.0082548  0.0182214
 4082.1346  1.0148720  0.0179672
 4086.2232  1.0244868  0.0176037
 4090.3115  1.0275869  0.0174489
 4094.4002  1.0276126  0.0173346
 4098.4885  1.0193889  0.0170278
 4102.5902  1.0206026  0.0168140
 4106.6916  1.0207391  0.0166262
 4110.8064  1.0185750  0.0164813
 4114.9078  1.0234700  0.0163792
 4119.0222  1.0187459  0.0162811
 4123.1501  1.0153357  0.0163873
 4127.2646  1.0083153  0.0164122
 4131.3924  1.0212982  0.0164988
 4135.5330  1.0235487  0.0166553
 4139.6606  1.0293018  0.0166583
 4143.8015  1.0328671  0.0167217
 4147.9552  1.0388341  0.0167856
 4152.0958  1.0432879  0.0167963
 4156.2495  1.0485113  0.0166906
 4160.4035  1.0408998  0.0166717
 4164.5703  1.0498224  0.0164639
 4168.7371  1.0606339  0.0162939
 4172.9038  1.0674334  0.0161559
 4177.0709  1.0643001  0.0158620
 4181.2508  1.0698588  0.0156842
 4185.4306  1.0827839  0.0154666
 4189.6235  1.0787458  0.0152848
 4193.8034  1.0835286  0.0150285
 4197.9966  1.0825404  0.0148204
 4202.2026  1.0759162  0.0145229
 4206.3955  1.0769391  0.0143233
 4210.6146  1.0668052  0.0141067
 4214.8206  1.0618104  0.0139558
 4219.0396  1.0537655  0.0137529
 4223.2587  1.0423476  0.0136628
 4227.4778  1.0316535  0.0135248
 4231.7099  1.0331500  0.0135083
 4235.9420  1.0288203  0.0134101
 4240.1742  1.0362151  0.0133593
 4244.4194  1.0335844  0.0133142
 4248.6646  1.0338218  0.0132981
 4252.9098  1.0285169  0.0132408
 4257.1550  1.0261900  0.0132525
 4261.4133  1.0219055  0.0130935
 4265.6847  1.0283512  0.0130434
 4269.9430  1.0254195  0.0128773
 4274.2144  1.0321013  0.0127697
 4278.4857  1.0314410  0.0126226
 4282.7702  1.0274789  0.0125033
 4287.0546  1.0384382  0.0123089
 4291.3391  1.0312043  0.0121334
 4295.6366  1.0341014  0.0120665
 4299.9207  1.0431149  0.0118671
 4304.2313  1.0478139  0.0117465
 4308.5288  1.0572668  0.0116003
 4312.8394  1.0660352  0.0116196
 4317.1500  1.0776488  0.0116107
 4321.4733  1.0928044  0.0114018
 4325.7970  1.1021042  0.0111873
 4330.1207  1.1132033  0.0112776
 4334.4443  1.1244847  0.0111593
 4338.7807  1.1412933  0.0109603
 4343.1175  1.1459281  0.0109291
 4347.4673  1.1546668  0.0109113
 4351.8171  1.1619531  0.0109427
 4356.1666  1.1582801  0.0109724
 4360.5164  1.1578799  0.0110041
 4364.8793  1.1537975  0.0110808
 4369.2419  1.1467148  0.0111104
 4373.6179  1.1415029  0.0111967
 4377.9935  1.1353846  0.0112303
 4382.3695  1.1287392  0.0112888
 4386.7454  1.1268423  0.0113157
 4391.1342  1.1196380  0.0112595
 4395.5232  1.1190398  0.0113493
 4399.9250  1.1247302  0.0114039
 4404.3271  1.1150157  0.0110301
 4408.7289  1.1228424  0.0108749
 4413.1441  1.1231365  0.0106655
 4417.5590  1.1254339  0.0105105
 4421.9742  1.1246887  0.0104388
 4426.3890  1.1249985  0.0103241
 4430.8173  1.1242305  0.0102870
 4435.2453  1.1267130  0.0103619
 4439.6863  1.1344198  0.0101306
 4444.1276  1.1461397  0.0099874
 4448.5686  1.1472747  0.0099108
 4453.0231  1.1506835  0.0098567
 4457.4641  1.1551757  0.0098164
 4461.9312  1.1569656  0.0098666
 4466.3857  1.1692036  0.0098574
 4470.8528  1.1814803  0.0098767
 4475.3331  1.1837730  0.0099677
 4479.8006  1.1953580  0.0100008
 4484.2808  1.2070535  0.0101923
 4488.7611  1.2168816  0.0101245
 4493.2544  1.2186676  0.0100128
 4497.7480  1.2202153  0.0099994
 4502.2544  1.2288254  0.0100384
 4506.7477  1.2306685  0.0099106
 4511.2541  1.2335033  0.0098882
 4515.7736  1.2306696  0.0099295
 4520.2803  1.2290659  0.0097670
 4524.7998  1.2231424  0.0095320
 4529.3323  1.2207994  0.0093953
 4533.8649  1.2131573  0.0093763
 4538.3974  1.2093720  0.0094069
 4542.9300  1.2028362  0.0093224
 4547.4756  1.1951814  0.0093088
 4552.0212  1.1917155  0.0092942
 4556.5802  1.1891928  0.0093725
 4561.1389  1.1865053  0.0094208
 4565.6976  1.1824068  0.0094359
 4570.2563  1.1788990  0.0095720
 4574.8281  1.1801686  0.0095664
 4579.3999  1.1775795  0.0095220
 4583.9847  1.1868439  0.0096053
 4588.5696  1.1849622  0.0096399
 4593.1544  1.1809518  0.0097906
 4597.7520  1.1830188  0.0099054
 4602.3499  1.1888740  0.0099789
 4606.9479  1.2006439  0.0100947
 4611.5589  1.2029167  0.0100729
 4616.1699  1.2056040  0.0099360
 4620.7939  1.2077031  0.0099016
 4625.4049  1.2069340  0.0098659
 4630.0290  1.2079974  0.0097912
 4634.6658  1.2096961  0.0097298
 4639.3030  1.2140948  0.0096711
 4643.9401  1.2156948  0.0095310
 4648.5773  1.2183855  0.0093935
 4653.2275  1.2196537  0.0092673
 4657.8774  1.2278132  0.0091212
 4662.5407  1.2286369  0.0090412
 4667.2040  1.2353984  0.0089282
 4671.8800  1.2328438  0.0088189
 4676.5433  1.2335778  0.0087278
 4681.2197  1.2365519  0.0086455
 4685.9088  1.2348729  0.0085804
 4690.5852  1.2313886  0.0085500
 4695.2746  1.2281044  0.0085683
 4699.9768  1.2274867  0.0085352
 4704.6794  1.2138495  0.0116044
 4709.3819  1.2186747  0.0116281
 4714.0972  1.2168626  0.0116827
 4718.7997  1.2242351  0.0117061
 4723.5280  1.2222807  0.0116259
 4728.2436  1.2203096  0.0117316
 4732.9720  1.2167748  0.0117747
 4737.7137  1.2171084  0.0118151
 4742.4421  1.2122891  0.0120143
 4747.1838  1.2017748  0.0119681
 4751.9383  1.2088048  0.0118195
 4756.6931  1.2051417  0.0122185
 4761.4476  1.2011698  0.0122055
 4766.2155  1.1900851  0.0121246
 4770.9700  1.1860305  0.0127542
 4775.7507  1.1903605  0.0126593
 4780.5186  1.1864080  0.0127572
 4785.2992  1.1720231  0.0130305
 4790.0930  1.1679734  0.0133372
 4794.8739  1.1725992  0.0135188
 4799.6807  1.1571479  0.0137374
 4804.4745  1.1507879  0.0138612
 4809.2816  1.1356858  0.0137149
 4814.0884  1.1297350  0.0131796
 4818.9083  1.1225086  0.0127970
 4823.7151  1.1083953  0.0123145
 4828.5483  1.1054207  0.0120780
 4833.3682  1.0945741  0.0120524
 4838.2142  1.0904287  0.0116519
 4843.0472  1.0872650  0.0114172
 4847.8932  1.0785927  0.0117964
 4852.7396  1.0702381  0.0113999
 4857.5856  1.0625815  0.0113012
 4862.4447  1.0634125  0.0116464
 4867.3169  1.0650227  0.0112588
 4872.1760  1.0559855  0.0113006
 4877.0482  1.0486757  0.0116274
 4881.9334  1.0589460  0.0111296
 4886.8056  1.0606211  0.0109411
 4891.7039  1.0583797  0.0108523
 4896.5892  1.0696760  0.0107885
 4901.4875  1.0716006  0.0108571
 4906.3858  1.0754399  0.0109285
 4911.2972  1.0699130  0.0110830
 4916.2086  1.0628757  0.0112595
 4921.1200  1.0729810  0.0114138
 4926.0445  1.0729429  0.0113852
 4930.9690  1.0789553  0.0114115
 4935.9065  1.0817829  0.0115294
 4940.8310  1.0884213  0.0112755
 4945.7816  1.0905679  0.0111344
 4950.7192  1.0911595  0.0111357
 4955.6695  1.0958469  0.0112439
 4960.6332  1.1074346  0.0114485
 4965.5969  1.1178330  0.0119523
 4970.5606  1.1345451  0.0123547
 4975.5243  1.1445538  0.0120555
 4980.5007  1.1605422  0.0122577
 4985.4906  1.1693897  0.0122791
 4990.4674  1.1876804  0.0121730
 4995.4572  1.1976533  0.0119737
 5000.4598  1.2013010  0.0117390
 5005.4628  1.2003905  0.0114848
 5010.4657  1.2164952  0.0112367
 5015.4683  1.2366459  0.0110484
 5020.4843  1.2574306  0.0109296
 5025.5134  1.2706046  0.0109795
 5030.5421  1.2748744  0.0111331
 5035.5712  1.2806846  0.0109240
 5040.6000  1.2827017  0.0108586
 5045.6421  1.2846955  0.0107668
 5050.6839  1.2906569  0.0107276
 5055.7392  1.3004673  0.0106404
 5060.7941  1.2963860  0.0105532
 5065.8624  1.2971115  0.0104748
 5070.9173  1.2996109  0.0103919
 5075.9987  1.2997849  0.0103302
 5081.0666  1.2973260  0.0103319
 5086.1480  1.2999917  0.0104232
 5091.2422  1.2978002  0.0104785
 5096.3366  1.3030473  0.0101645
 5101.4307  1.2967608  0.0101260
 5106.5249  1.3032790  0.0101971
 5111.6324  1.3063216  0.0103284
 5116.7527  1.3128487  0.0104908
 5121.8599  1.3035527  0.0106681
 5126.9936  1.3088754  0.0107425
 5132.1138  1.3116468  0.0108636
 5137.2472  1.3092933  0.0109077
 5142.3809  1.3129905  0.0108547
 5147.5273  1.3029613  0.0107596
 5152.6737  1.2924731  0.0106473
 5157.8332  1.2768903  0.0104160
 5162.9800  1.2718607  0.0102523
 5168.1526  1.2606186  0.0101022
 5173.3121  1.2520649  0.0100033
 5178.4847  1.2391244  0.0099911
 5183.6703  1.2289501  0.0101049
 5188.8560  1.2200722  0.0101444
 5194.0416  1.2110599  0.0099081
 5199.2407  1.2078943  0.0098647
 5204.4394  1.2056620  0.0097515
 5209.6381  1.1935887  0.0097700
 5214.8500  1.1898123  0.0100162
 5220.0618  1.1823828  0.0096966
 5225.2866  1.1955011  0.0095111
 5230.5115  1.1913180  0.0095783
 5235.7364  1.1877270  0.0096605
 5240.9744  1.1852851  0.0097541
 5246.2123  1.1759310  0.0098091
 5251.4634  1.1694231  0.0098777
 5256.7144  1.1680397  0.0099268
 5261.9782  1.1625735  0.0099944
 5267.2292  1.1622738  0.0098799
 5272.5064  1.1593171  0.0098034
 5277.7836  1.1517673  0.0097098
 5283.0607  1.1507266  0.0095770
 5288.3379  1.1508487  0.0094467
 5293.6279  1.1490802  0.0093313
 5298.9181  1.1537849  0.0092518
 5304.2215  1.1460631  0.0092195
 5309.5248  1.1357545  0.0095227
 5314.8281  1.1360284  0.0098108
 5320.1442  1.1302145  0.0093964
 5325.4737  1.1356215  0.0094612
 5330.7901  1.1347219  0.0095867
 5336.1323  1.1301850  0.0097601
 5341.4618  1.1246451  0.0098960
 5346.8044  1.1195039  0.0100892
 5352.1469  1.1151007  0.0103176
 5357.5019  1.1156813  0.0102055
 5362.8575  1.1141255  0.0101691
 5368.2266  1.1126575  0.0101261
 5373.5950  1.1017613  0.0101880
 5378.9633  1.0857593  0.0102396
 5384.3451  1.0814543  0.0102394
 5389.7269  1.0806201  0.0102888
 5395.1214  1.0811468  0.0103248
 5400.5160  1.0857508  0.0103144
 5405.9105  1.0801347  0.0103322
 5411.3185  1.0905104  0.0105129
 5416.7391  1.0906447  0.0107363
 5422.1471  1.0815676  0.0100988
 5427.5812  1.0857226  0.0098805
 5433.0018  1.0889250  0.0097082
 5438.4359  1.0860887  0.0095542
 5443.8694  1.0768688  0.0095681
 5449.3162  1.0602448  0.0096294
 5454.7637  1.0555323  0.0097950
 5460.2233  1.0446002  0.0096141
 5465.6835  1.0383974  0.0096565
 5471.1565  1.0293139  0.0096157
 5476.6167  1.0177344  0.0096035
 5482.1025  1.0072327  0.0095312
 5487.5754  1.0001887  0.0093931
 5493.0618  0.9940392  0.0093596
 5498.5610  0.9923099  0.0092284
 5504.0601  0.9838641  0.0092483
 5509.5592  0.9820042  0.0092332
 5515.0718  0.9844478  0.0093391
 5520.5837  0.9715899  0.0096930
 5526.1090  0.9671113  0.0094416
 5531.6342  0.9721903  0.0093801
 5537.1729  0.9640301  0.0093763
 5542.7110  0.9579980  0.0093058
 5548.2496  0.9475660  0.0093367
 5553.8011  0.9408833  0.0092781
 5559.3525  0.9440547  0.0093188
 5564.9167  0.9472782  0.0092745
 5570.4815  0.9509118  0.0093241
 5576.0457  0.9523782  0.0092756
 5581.6233  0.9486644  0.0092203
 5587.2009  0.9420125  0.0092798
 5592.7919  0.9432117  0.0092097
 5598.3822  0.9473400  0.0092380
 5603.9860  0.9465104  0.0091530
 5609.5897  0.9459038  0.0091795
 5615.1934  0.9409546  0.0090837
 5620.8099  0.9353184  0.0090856
 5626.4398  0.9323158  0.0089997
 5632.0569  0.9287895  0.0089866
 5637.6996  0.9246415  0.0089863
 5643.3295  0.9106168  0.0089841
 5648.9721  0.9140280  0.0089625
 5654.6282  0.9128611  0.0089705
 5660.2842  0.9085429  0.0090035
 5665.9402  0.9127191  0.0091532
 5671.6090  0.9081917  0.0092434
 5677.2778  0.9039001  0.0093859
 5682.9600  0.9034656  0.0094836
 5688.6422  0.8967227  0.0095503
 5694.3244  0.9025419  0.0095731
 5700.0193  0.9143516  0.0095337
 5705.7277  0.9265585  0.0094293
 5711.4226  0.9289390  0.0093355
 5717.1437  0.9442296  0.0091847
 5722.8520  0.9481702  0.0090016
 5728.5731  0.9633435  0.0089101
 5734.3076  0.9708217  0.0087828
 5740.0421  0.9780543  0.0087396
 5745.7893  0.9897349  0.0087175
 5751.5238  1.0041631  0.0087334
 5757.2838  1.0212637  0.0087450
 5763.0444  1.0304271  0.0086583
 5768.8051  1.0441753  0.0087128
 5774.5651  1.0509036  0.0087891
 5780.3519  1.0509874  0.0088333
 5786.1253  1.0544785  0.0089606
 5791.9120  1.0617661  0.0091458
 5797.7116  1.0652900  0.0092024
 5803.4984  1.0768836  0.0093144
 5809.3107  1.0881169  0.0093724
 5815.1102  1.0947034  0.0094006
 5820.9359  1.0915354  0.0093889
 5826.7488  1.1052426  0.0092874
 5832.5879  1.1070102  0.0092262
 5838.4136  1.1163758  0.0091787
 5844.2521  1.1234087  0.0090512
 5850.1039  1.1395832  0.0089850
 5855.9430  1.1526021  0.0089668
 5861.8076  1.1625394  0.0090164
 5867.6594  1.1713609  0.0091012
 5873.5374  1.1778904  0.0091268
 5879.4027  1.1851261  0.0091626
 5885.2807  1.1854757  0.0091901
 5891.1714  1.1887627  0.0091758
 5897.0628  1.2000482  0.0092332
 5902.9669  1.2056295  0.0091994
 5908.8577  1.2038026  0.0092138
 5914.7752  1.2049999  0.0092284
 5920.6921  1.2049253  0.0092615
 5926.6096  1.2016886  0.0092580
 5932.5393  1.2011006  0.0093644
 5938.4696  1.2060571  0.0095822
 5944.4133  1.1971577  0.0096267
 5950.3563  1.1997720  0.0095525
 5956.3000  1.1921828  0.0095780
 5962.2558  1.1817346  0.0096534
 5968.2257  1.1666048  0.0098512
 5974.1949  1.1577048  0.0100026
 5980.1647  1.1449275  0.0099049
 5986.1466  1.1282701  0.0100404
 5992.1292  1.1147616  0.0101360
 5998.1252  1.1043228  0.0102808
 6004.1206  1.1026754  0.0104265
 6010.1293  1.0931067  0.0104069
 6016.1374  1.0850199  0.0104449
 6022.1595  1.0796766  0.0104222
 6028.1810  1.0819046  0.0102852
 6034.2025  1.0829358  0.0102076
 6040.2374  1.0893109  0.0101464
 6046.2851  1.0874599  0.0102429
 6052.3334  1.0913737  0.0103220
 6058.3810  1.0923440  0.0101826
 6064.4421  1.0899160  0.0100823
 6070.5025  1.0801061  0.0101539
 6076.5763  1.0792238  0.0103453
 6082.6507  1.0777570  0.0107455
 6088.7372  1.0804937  0.0110960
 6094.8244  1.0756047  0.0112943
 6100.9244  1.0715950  0.0113483
 6107.0116  1.0618807  0.0114693
 6113.1243  1.0550884  0.0116990
 6119.2376  1.0566158  0.0118762
 6125.3637  1.0442930  0.0120374
 6131.4898  1.0426308  0.0121722
 6137.6159  1.0306731  0.0122511
 6143.7554  1.0122833  0.0123169
 6149.8949  1.0053499  0.0123831
 6156.0471  0.9959176  0.0124922
 6162.1994  0.9850513  0.0128406
 6168.3644  0.9878446  0.0130458
 6174.5428  0.9838637  0.0127956
 6180.7084  0.9775838  0.0128928
 6186.8868  0.9869906  0.0128558
 6193.0786  0.9962438  0.0128708
 6199.2698  0.9948794  0.0130197
 6205.4743  0.9912596  0.0133064
 6211.6789  1.0010754  0.0138195
 6217.8968  1.0001768  0.0137589
 6224.1013  0.9942943  0.0138162
 6230.3320  0.9914054  0.0139840
 6236.5621  0.9938610  0.0140796
 6242.8062  0.9833336  0.0142037
 6249.0496  0.9694595  0.0142311
 6255.2937  0.9661952  0.0141131
 6261.5506  0.9601939  0.0141084
 6267.8074  0.9664071  0.0138619
 6274.0770  0.9626604  0.0138815
 6280.3466  0.9685995  0.0140192
 6286.6296  0.9658225  0.0141306
 6292.9260  0.9682081  0.0145503
 6299.2218  0.9688231  0.0152515
 6305.5175  0.9741209  0.0155249
 6311.8139  0.9875011  0.0163051
 6318.1358  1.0019675  0.0163061
 6324.4450  1.0063956  0.0169969
 6330.7669  1.0197184  0.0170574
 6337.1022  1.0221031  0.0159635
 6343.4375  1.0258033  0.0160965
 6349.7855  1.0180072  0.0159262
 6356.1336  1.0187746  0.0163131
 6362.4950  1.0082959  0.0164087
 6368.8565  0.9948978  0.0168528
 6375.2179  0.9800187  0.0166244
 6381.6049  0.9601756  0.0167583
 6387.9797  0.9556575  0.0166596
 6394.3667  0.9517499  0.0156834
 6400.7677  0.9417582  0.0153824
 6407.1680  0.9304175  0.0149010
 6413.5684  0.9153562  0.0139331
 6419.9949  0.9017879  0.0136927
 6426.4086  0.8991655  0.0132978
 6432.8351  0.9038946  0.0132179
 6439.2750  0.9000369  0.0125677
 6445.7015  0.9002391  0.0124751
 6452.1542  0.9021535  0.0123481
 6458.6068  0.9106519  0.0123236
 6465.0595  0.9104815  0.0123677
 6471.5255  0.9010543  0.0120298
 6478.0043  0.8988700  0.0122419
 6484.4831  0.9092821  0.0122492
 6490.9619  0.9048241  0.0124468
 6497.4541  0.9014968  0.0124797
 6503.9591  0.9089171  0.0123902
 6510.4640  0.9234288  0.0123348
 6516.9690  0.9382063  0.0122599
 6523.4867  0.9480057  0.0123327
 6530.0050  0.9521241  0.0121900
 6536.5361  0.9634190  0.0117477
 6543.0800  0.9632241  0.0117796
 6549.6245  0.9682620  0.0116606
 6556.1683  0.9684046  0.0115588
 6562.7256  0.9717174  0.0114761
 6569.2828  0.9757305  0.0114302
 6575.8529  0.9739431  0.0113925
 6582.4363  0.9733621  0.0113707
 6589.0197  0.9637780  0.0113706
 6595.6165  0.9584781  0.0113814
 6602.1999  0.9619384  0.0114557
 6608.8094  0.9641337  0.0114365
 6615.4183  0.9495431  0.0114189
 6622.0279  0.9410846  0.0113878
 6628.6508  0.9419649  0.0113452
 6635.2859  0.9507617  0.0113218
 6641.9216  0.9586595  0.0112765
 6648.5573  0.9558886  0.0112473
 6655.2057  0.9562886  0.0112358
 6661.8676  0.9604748  0.0111126
 6668.5294  0.9559416  0.0111604
 6675.1913  0.9482913  0.0114466
 6681.8659  0.9496678  0.0114889
 6688.5539  0.9575580  0.0115747
 6695.2419  0.9576359  0.0115852
 6701.9427  0.9614615  0.0122154
 6708.6434  0.9704549  0.0124761
 6715.3442  0.9729325  0.0127638
 6722.0717  0.9888890  0.0128367
 6728.7852  0.9958166  0.0130328
 6735.5128  0.9977071  0.0135676
 6742.2525  0.9989663  0.0135615
 6748.9928  1.0112704  0.0131065
 6755.7458  1.0153210  0.0129382
 6762.4989  1.0185196  0.0127256
 6769.2653  1.0304385  0.0125312
 6776.0311  1.0340953  0.0122447
 6782.8110  1.0402579  0.0117334
 6789.5902  1.0382266  0.0115810
 6796.3821  1.0332338  0.0116773
 6803.1748  1.0384303  0.0115617
 6809.9801  1.0356348  0.0111905
 6816.7989  1.0348419  0.0111016
 6823.6042  1.0339458  0.0110130
 6830.4357  1.0391434  0.0110950
 6837.2672  1.0475475  0.0107885
 6844.0987  1.0539124  0.0107290
 6850.9430  1.0593787  0.0106771
 6857.8007  1.0612026  0.0108087
 6864.6583  1.0586348  0.0105133
 6871.5160  1.0567867  0.0104510
 6878.3870  1.0553856  0.0103924
 6885.2708  1.0431510  0.0102852
 6892.1546  1.0392011  0.0102159
 6899.0512  1.0362382  0.0101512
 6905.9484  1.0400203  0.0100959
 6912.8577  1.0341409  0.0098274
 6919.7677  1.0297456  0.0099661
 6926.6910  1.0260772  0.0099225
 6933.6137  1.0209605  0.0098913
 6940.5498  1.0226887  0.0096607
 6947.4860  1.0229177  0.0098481
 6954.4348  1.0284607  0.0098577
 6961.3971  1.0364609  0.0098834
 6968.3593  1.0487235  0.0097207
 6975.3216  1.0600185  0.0099412
 6982.2966  1.0653470  0.0099499
 6989.2850  1.0687780  0.0097426
 6996.2734  1.0667105  0.0097183
 7003.2746  1.0691866  0.0098860
 7010.2630  1.0675427  0.0098453
 7017.2775  1.0565372  0.0095702
 7024.3049  1.0513639  0.0095055
 7031.3194  1.0535856  0.0096151
 7038.3595  1.0501798  0.0093409
 7045.3874  1.0473990  0.0092814
 7052.4409  1.0392714  0.0094142
 7059.4944  1.0317076  0.0093762
 7066.5478  1.0279332  0.0091343
 7073.6147  1.0283512  0.0090857
 7080.6943  1.0222580  0.0092357
 7087.7739  1.0223567  0.0090611
 7094.8669  1.0226667  0.0090522
 7101.9593  1.0219538  0.0090562
 7109.0657  1.0220469  0.0091166
 7116.1714  1.0160795  0.0091173
 7123.2900  1.0118620  0.0091346
 7130.4091  1.0079767  0.0093700
 7137.5410  1.0060499  0.0091832
 7144.6729  0.9973897  0.0091531
 7151.8182  0.9890471  0.0091342
 7158.9763  0.9828479  0.0092173
 7166.1344  0.9806349  0.0092696
 7173.3052  0.9765065  0.0093196
 7180.4766  0.9845905  0.0094547
 7187.6609  0.9865606  0.0094860
 7194.8451  0.9891726  0.0095024
 7202.0420  0.9944681  0.0093000
 7209.2396  0.9936316  0.0093928
 7216.4500  0.9954446  0.0092706
 7223.6604  1.0001529  0.0091451
 7230.8835  0.9996622  0.0089427
 7238.1200  0.9978888  0.0088306
 7245.3565  0.9956034  0.0087436
 7252.6058  0.9825208  0.0085389
 7259.8557  0.9822533  0.0086994
 7267.1183  0.9727625  0.0087163
 7274.3938  0.9595081  0.0085201
 7281.6564  0.9425904  0.0086270
 7288.9452  0.9264395  0.0085517
 7296.2334  0.9128496  0.0083212
 7303.5356  0.9023438  0.0084119
 7310.8372  0.8943192  0.0083323
 7318.1388  0.8898927  0.0081283
 7325.4671  0.8866002  0.0082196
 7332.7948  0.8809185  0.0081884
 7340.1225  0.8746879  0.0080164
 7347.4637  0.8675468  0.0081559
 7354.8048  0.8655431  0.0081354
 7362.1586  0.8620492  0.0079887
 7369.5259  0.8551164  0.0079867
 7376.8925  0.8532962  0.0081255
 7384.2732  0.8514235  0.0079733
 7391.6660  0.8474609  0.0079815
 7399.0466  0.8485388  0.0079738
 7406.4528  0.8385732  0.0079590
 7413.8589  0.8322933  0.0079447
 7421.2651  0.8251668  0.0078963
 7428.6974  0.8161394  0.0078645
 7436.1170  0.8081026  0.0078350
 7443.5621  0.7992140  0.0077784
 7451.0078  0.7935275  0.0077500
 7458.4535  0.7906291  0.0077284
 7465.9120  0.7872152  0.0076732
 7473.3832  0.7836283  0.0076429
 7480.8550  0.7774773  0.0076169
 7488.3397  0.7738863  0.0075466
 7495.8243  0.7697030  0.0075197
 7503.3216  0.7669371  0.0073313
 7510.8197  0.7661655  0.0074091
 7518.3304  0.7679019  0.0073641
 7525.8539  0.7694038  0.0071599
 7533.3781  0.7715798  0.0072493
 7540.9150  0.7756357  0.0072200
 7548.4519  0.7740285  0.0071695
 7556.0016  0.7752972  0.0071485
 7563.5519  0.7722955  0.0070014
 7571.1278  0.7734467  0.0071097
 7578.6908  0.7719968  0.0071012
 7586.2800  0.7738280  0.0069695
 7593.8559  0.7733369  0.0070904
 7601.4585  0.7687858  0.0069592
 7609.0604  0.7683218  0.0069441
 7616.6624  0.7642084  0.0070777
 7624.2778  0.7619568  0.0069449
 7631.9065  0.7570422  0.0069316
 7639.5347  0.7533282  0.0070601
 7647.1762  0.7481458  0.0069185
 7654.8305  0.7442334  0.0070363
 7662.4847  0.7388974  0.0068858
 7670.1390  0.7364235  0.0068557
 7677.8201  0.7327604  0.0069615
 7685.4871  0.7261857  0.0067978
 7693.1809  0.7179962  0.0067669
 7700.8747  0.7137344  0.0067228
 7708.5685  0.7085747  0.0066822
 7716.2879  0.7083355  0.0067618
 7723.9951  0.7055301  0.0066019
 7731.7278  0.6982859  0.0065832
 7739.4605  0.6905928  0.0065401
 7747.1933  0.6896483  0.0064844
 7754.9394  0.6875787  0.0064553
 7762.6982  0.6871154  0.0064468
 7770.4571  0.6856436  0.0064634
 7778.2287  0.6855810  0.0065295
 7786.0144  0.6819688  0.0065256
 7793.7994  0.6765532  0.0064434
 7801.5844  0.6716535  0.0066223
 7809.3956  0.6683145  0.0066636
 7817.2068  0.6629284  0.0067791
 7825.0180  0.6570905  0.0068221
 7832.8419  0.6577664  0.0067766
 7840.6792  0.6563554  0.0069545
 7848.5165  0.6559749  0.0068541
 7856.3673  0.6501624  0.0070057
 7864.2307  0.6485610  0.0070134
 7872.0942  0.6476863  0.0069035
 7879.9704  0.6417321  0.0070391
 7887.8473  0.6443594  0.0068829
 7895.7369  0.6461949  0.0069376
 7903.6259  0.6454601  0.0067793
 7911.5289  0.6466668  0.0068751
 7919.4447  0.6412010  0.0067403
 7927.3605  0.6364123  0.0067324
 7935.2890  0.6310790  0.0067893
 7943.2309  0.6225874  0.0066164
 7951.1728  0.6130615  0.0066796
 7959.1275  0.6089141  0.0065075
 7967.0822  0.6022536  0.0064714
 7975.0503  0.6021766  0.0064019
 7983.0183  0.5987604  0.0063707
 7991.0126  0.5940297  0.0062971
 7999.0061  0.5896500  0.0062567
 8007.0004  0.5843328  0.0063367
 8015.0073  0.5820982  0.0062035
 8023.0277  0.5812187  0.0061876
 8031.0481  0.5815223  0.0061330
 8039.0812  0.5810280  0.0061186
 8047.1143  0.5848387  0.0060946
 8055.1609  0.5866374  0.0060765
 8063.2201  0.5891846  0.0060297
 8071.2794  0.5922346  0.0060084
 8079.3521  0.5935398  0.0059759
 8087.4375  0.5980220  0.0059520
 8095.5229  0.5994298  0.0058057
 8103.6218  0.6035331  0.0058679
 8111.7200  0.6112631  0.0057473
 8119.8315  0.6157483  0.0058340
 8127.9565  0.6243015  0.0057365
 8136.0815  0.6266196  0.0058350
 8144.2192  0.6303037  0.0058374
 8152.3697  0.6305792  0.0058696
 8160.5074  0.6328080  0.0058949
 8168.6713  0.6320186  0.0058468
 8176.8486  0.6358598  0.0060093
 8185.0252  0.6407877  0.0059850
 8193.2152  0.6422945  0.0061740
 8201.4052  0.6431651  0.0061453
 8209.6080  0.6434574  0.0063025
 8217.8115  0.6446401  0.0061864
 8226.0276  0.6446519  0.0063531
 8234.2566  0.6447739  0.0063731
 8242.4989  0.6443731  0.0065926
 8250.7412  0.6407179  0.0065816
 8258.9835  0.6391907  0.0068102
 8267.2520  0.6380596  0.0068727
 8275.5205  0.6321221  0.0071670
 8283.7883  0.6294863  0.0072279
 8292.0702  0.6217113  0.0074790
 8300.3648  0.6165281  0.0074144
 8308.6722  0.6107966  0.0074620
 8316.9796  0.6104025  0.0074652
 8325.2870  0.6054349  0.0074217
 8333.6212  0.6076275  0.0074044
 8341.9547  0.6053990  0.0074135
 8350.3016  0.5997714  0.0074731
 8358.6479  0.5952715  0.0073140
 8367.0076  0.5927675  0.0073730
 8375.3807  0.5926862  0.0072161
 8383.7404  0.5950872  0.0072797
 8392.1268  0.5930465  0.0071030
 8400.5254  0.5924091  0.0071756
 8408.9246  0.5934556  0.0069699
 8417.3366  0.5953127  0.0069823
 8425.7486  0.5969219  0.0067917
 8434.1867  0.5972255  0.0068029
 8442.6121  0.6036393  0.0066337
 8451.0502  0.6084355  0.0066410
 8459.5145  0.6167955  0.0065158
 8467.9654  0.6216183  0.0066004
 8476.4297  0.6271466  0.0064578
 8484.9074  0.6278625  0.0065092
 8493.3978  0.6330541  0.0064584
 8501.8882  0.6376532  0.0065168
 8510.3914  0.6386464  0.0065451
 8518.9080  0.6372647  0.0066182
 8527.4246  0.6386482  0.0066664
 8535.9546  0.6395148  0.0067584
 8544.4839  0.6409562  0.0069257
 8553.0266  0.6362470  0.0068562
 8561.5828  0.6355737  0.0070371
 8570.1510  0.6324360  0.0069943
 8578.7199  0.6270564  0.0070201
 8587.3022  0.6214251  0.0070076
 8595.8838  0.6133468  0.0070287
 8604.4788  0.6110670  0.0070659
 8613.0866  0.6089047  0.0071153
 8621.7078  0.6026271  0.0070568
 8630.3290  0.5881892  0.0070426
 8638.9502  0.5804369  0.0071035
 8647.5969  0.5695229  0.0072867
 8656.2442  0.5620947  0.0074006
 8664.9043  0.5507403  0.0078103
 8673.5650  0.5365470  0.0083621
 8682.2379  0.5268630  0.0086425
 8690.9247  0.5210649  0.0090033
 8699.6110  0.5134459  0.0089434
 8708.3100  0.5104647  0.0091605
 8717.0230  0.5140080  0.0088878
 8725.7354  0.5193404  0.0088417
 8734.4605  0.5190574  0.0086961
 8743.1991  0.5217344  0.0084392
 8751.9382  0.5217605  0.0077658
 8760.6895  0.5244606  0.0074032
 8769.4542  0.5314369  0.0074768
 8778.2189  0.5332403  0.0074113
 8787.0098  0.5318741  0.0073515
 8795.7878  0.5238189  0.0072109
 8804.5914  0.5207259  0.0073142
 8813.3957  0.5139233  0.0073688
 8822.2126  0.5078073  0.0075151
 8831.0296  0.4981908  0.0076421
 8839.8594  0.4912404  0.0075029
 8848.7025  0.4858754  0.0074842
 8857.5457  0.4843436  0.0074557
 8866.4149  0.4739938  0.0073738
 8875.2715  0.4710051  0.0073663
 8884.1535  0.4714383  0.0074323
 8893.0362  0.4710472  0.0076551
 8901.9310  0.4714124  0.0077780
 8910.8398  0.4774422  0.0077419
 8919.7480  0.4800525  0.0076688
 8928.6696  0.4863163  0.0078842
 8937.5912  0.4888924  0.0082992
 8946.5255  0.4936119  0.0085210
 8955.4733  0.4933316  0.0088530
 8964.4338  0.4907496  0.0093359
 8973.3949  0.4902123  0.0089630
 8982.3682  0.4914003  0.0089898
 8991.3554  0.4929745  0.0093227
 9000.3421  0.4890456  0.0100070
 9009.3549  0.4880201  0.0103648
 9018.3549  0.4841552  0.0112575
 9027.3805  0.4635080  0.0116382
 9036.4066  0.4496312  0.0113278
 9045.4328  0.4409185  0.0112685
 9054.4845  0.4373537  0.0106744
 9063.5369  0.4381711  0.0101573
 9072.6020  0.4395583  0.0098443
 9081.6804  0.4354417  0.0092810
 9090.7583  0.4311159  0.0089543
 9099.8495  0.4250253  0.0086748
 9108.9542  0.4239428  0.0090830
 9118.0588  0.4250867  0.0096940
 9127.1762  0.4282521  0.0092007
 9136.3064  0.4266713  0.0087154
 9145.4499  0.4229147  0.0085021
 9154.5934  0.4209924  0.0082399
 9163.7370  0.4170087  0.0080976
 9172.9067  0.4139793  0.0080451
 9182.0891  0.4134784  0.0078608
 9191.2588  0.4092795  0.0077150
 9200.4547  0.4078180  0.0076294
 9209.6639  0.4085106  0.0075102
 9218.8597  0.4118233  0.0074358
 9228.0817  0.4110271  0.0073907
 9237.3165  0.4129304  0.0072679
 9246.5512  0.4127294  0.0072535
 9255.7994  0.4131387  0.0071709
 9265.0603  0.4131277  0.0072882
 9274.3218  0.4154815  0.0073119
 9283.5961  0.4214377  0.0072724
 9292.8832  0.4242144  0.0074729
 9302.1702  0.4281828  0.0074732
 9311.4706  0.4278152  0.0076046
 9320.7838  0.4250231  0.0078067
 9330.1104  0.4233371  0.0077823
 9339.4370  0.4215994  0.0079206
 9348.7764  0.4217196  0.0081211
 9358.1285  0.4186684  0.0080140
 9367.4812  0.4132160  0.0080546
 9376.8601  0.4103885  0.0082318
 9386.2384  0.4067381  0.0080671
 9395.6173  0.4028989  0.0080112
 9405.0089  0.3953332  0.0079603
 9414.4267  0.3916004  0.0079572
 9423.8317  0.3850805  0.0080707
 9433.2623  0.3813171  0.0082961
 9442.6935  0.3776035  0.0084521
 9452.1374  0.3734983  0.0087841
 9461.5948  0.3751880  0.0088986
 9471.0515  0.3704688  0.0090465
 9480.5216  0.3649169  0.0091681
 9490.0051  0.3632199  0.0094689
 9499.5007  0.3569572  0.0096221
 9508.9969  0.3540122  0.0097018
 9518.5066  0.3515314  0.0096238
 9528.0290  0.3519203  0.0095432
 9537.5514  0.3536765  0.0066733
 9547.0865  0.3517534  0.0067555
 9556.6351  0.3519286  0.0067695
 9566.1964  0.3495429  0.0067211
 9575.7583  0.3477988  0.0067431
 9585.3330  0.3464562  0.0068170
 9594.9205  0.3434819  0.0067451
 9604.5213  0.3403662  0.0067092
 9614.1215  0.3365994  0.0067011
 9623.7358  0.3350186  0.0067543
 9633.3628  0.3310848  0.0068753
 9643.0025  0.3288757  0.0070399
 9652.6423  0.3277225  0.0071360
 9662.2954  0.3256260  0.0067290
 9671.9479  0.3211859  0.0067824
 9681.6272  0.3167951  0.0067264
 9691.3065  0.3103064  0.0066302
 9700.9986  0.3069527  0.0066252
 9710.7040  0.3041801  0.0066995
 9720.4088  0.3016000  0.0066879
 9730.1270  0.2990192  0.0067294
 9739.8586  0.2982131  0.0067026
 9749.6030  0.2937813  0.0067469
 9759.3607  0.2912595  0.0068178
 9769.1178  0.2901496  0.0069369
 9778.8883  0.2880569  0.0070539
 9788.6589  0.2848224  0.0071423
 9798.4555  0.2861574  0.0072595
 9808.2522  0.2867249  0.0074221
 9818.0622  0.2855308  0.0076256
 9827.8850  0.2878283  0.0078311
 9837.7078  0.2873769  0.0078534
 9847.5434  0.2885333  0.0079352
 9857.3923  0.2906905  0.0080310
 9867.2540  0.2910257  0.0079339
 9877.1164  0.2940023  0.0078799
 9886.9915  0.2957023  0.0079053
 9896.8793  0.2982823  0.0078853
 9906.7806  0.3005314  0.0079404
 9916.6818  0.3058561  0.0078947
 9926.6092  0.3038453  0.0078293
 9936.5360  0.3053839  0.0077538
 9946.4768  0.3066636  0.0077449
 9956.4170  0.3113537  0.0077816
 9966.3705  0.3133852  0.0078015
 9976.3368  0.3143957  0.0077434
 9986.3165  0.3162581  0.0078144
 9996.3090  0.3155874  0.0080498
 10006.3015  0.3197355  0.0085717
 10016.3073  0.3201977  0.0084889
 10026.3259  0.3230712  0.0083955
 10036.3445  0.3251408  0.0083228
 10046.3893  0.3264891  0.0082592
 10056.4340  0.3206342  0.0085785
 10066.4922  0.3216176  0.0085393
 10076.5631  0.3215387  0.0086667
 10086.6340  0.3261363  0.0088078
 10096.7311  0.3288352  0.0088700
 10106.8154  0.3303936  0.0088277
 10116.9252  0.3297856  0.0088733
 10127.0484  0.3288311  0.0089149
 10137.1716  0.3260689  0.0089853
 10147.3082  0.3267594  0.0090900
 10157.4576  0.3251672  0.0090657
 10167.6197  0.3239472  0.0091105
 10177.7818  0.3198271  0.0091677
 10187.9573  0.3206348  0.0092394
 10198.1462  0.3168041  0.0092324
 10208.3479  0.3169449  0.0093559
 10218.5495  0.3194757  0.0094641
 10228.7767  0.3172705  0.0094379
 10239.0045  0.3142924  0.0094096
 10249.2457  0.3151048  0.0093318
 10259.4990  0.3151142  0.0093451
 10269.7530  0.3154975  0.0093898
 10280.0197  0.3161964  0.0094808
 10290.3132  0.3173395  0.0095340
 10300.5927  0.3153733  0.0095144
 10310.8989  0.3134659  0.0095057
 10321.2052  0.3110991  0.0095543
 10331.5376  0.3138015  0.0096499
 10341.8693  0.3138020  0.0097437
 10352.2018  0.3170656  0.0098739
 10362.5603  0.3143649  0.0098644
 10372.9182  0.3097997  0.0099213
 10383.2895  0.3057998  0.0100503
 10393.6743  0.3032883  0.0102401
 10404.0717  0.3027179  0.0103034
 10414.4692  0.3033826  0.0104261
 10424.8928  0.3041204  0.0104915
 10435.3164  0.3006054  0.0106901
 10445.7534  0.2974346  0.0108062
 10456.2032  0.2924871  0.0108160
 10466.6529  0.2882903  0.0109259
 10477.1289  0.2827802  0.0110188
 10487.6048  0.2764056  0.0109867
 10498.0807  0.2693928  0.0110299
 10508.5821  0.2630456  0.0110968
 10519.0976  0.2545252  0.0111964
 10529.6124  0.2460267  0.0113218
 10540.1540  0.2366538  0.0115389
 10550.6816  0.2297901  0.0116531
 10561.2359  0.2208803  0.0119325
 10571.8037  0.2139040  0.0122821
 10582.3708  0.2095736  0.0126599
 10592.9513  0.2034717  0.0130629
 10603.5446  0.1976689  0.0135115
 10614.1512  0.1983734  0.0139675
 10624.7707  0.1964570  0.0142731
 10635.3901  0.1919291  0.0148452
 10646.0229  0.1867155  0.0155285
 10656.6819  0.1841074  0.0160805
 10667.3274  0.1823441  0.0166306
 10677.9991  0.1828292  0.0171469
 10688.6843  0.1866779  0.0176780
 10699.3687  0.1862414  0.0182174
 10710.0672  0.1872791  0.0184295
 10720.7785  0.1881113  0.0189068
 10731.5025  0.1884561  0.0193123
 10742.2393  0.1933956  0.0196344
 10752.9761  0.1946133  0.0198605
 10763.7269  0.2001657  0.0200403
 10774.4892  0.2003278  0.0201924
 10785.2655  0.2052625  0.0202952
 10796.0558  0.2067591  0.0203379
 10806.8449  0.2135556  0.0202497
 10817.6608  0.2155164  0.0203221
 10828.4754  0.2227045  0.0204598
 10839.3040  0.2251248  0.0207706
 10850.1453  0.2347385  0.0211925
 10861.0008  0.2428418  0.0212030
 10871.8549  0.2479453  0.0212870
 10882.7230  0.2511354  0.0213768
 10893.6167  0.2487237  0.0214275
 10904.4976  0.2490850  0.0214454
 10915.4053  0.2471821  0.0214804
 10926.3245  0.2422461  0.0213042
 10937.2577  0.2407036  0.0211261
 10948.1910  0.2380293  0.0209716
 10959.1369  0.2363258  0.0209784
 10970.0957  0.2361602  0.0211333
 10981.0684  0.2386206  0.0212780
 10992.0539  0.2357422  0.0213739
 11003.0395  0.2347929  0.0214798
 11014.0505  0.2364949  0.0213718
 11025.0615  0.2370335  0.0213417
 11036.0866  0.2258306  0.0213182
 11047.1244  0.2145604  0.0213172
 11058.1750  0.2071779  0.0213263
