% File created by shivutils (I.Shivvers)
% wl(A)   flm    er(optional)
3489.00   7.80107927   0.30134401
3490.00   7.85309315   0.30172196
3491.00   7.93198681   0.30138582
3492.00   7.83485651   0.29785299
3493.00   7.96017313   0.29853871
3494.00   8.17288303   0.30045888
3495.00   8.19072342   0.29899943
3496.00   8.09027195   0.29590482
3497.00   7.89140320   0.29211456
3498.00   7.84431553   0.29011330
3499.00   7.81286240   0.29051733
3500.00   7.61792898   0.28899333
3501.00   7.61047745   0.28770432
3502.00   7.84858704   0.28955075
3503.00   7.93123007   0.28838187
3504.00   7.86635876   0.28602862
3505.00   7.94701052   0.28690282
3506.00   7.83813286   0.28500229
3507.00   7.88565254   0.28489232
3508.00   7.97525930   0.28515017
3509.00   7.98669004   0.28389665
3510.00   7.80688429   0.28115588
3511.00   7.92105055   0.28237292
3512.00   7.95734692   0.27973580
3513.00   7.78838682   0.27735424
3514.00   7.75115299   0.27724752
3515.00   7.89211130   0.28032094
3516.00   8.01625633   0.28145224
3517.00   7.94348621   0.28054535
3518.00   7.65903568   0.27673578
3519.00   7.96103668   0.27718332
3520.00   8.12380123   0.27915439
3521.00   7.71134186   0.27543941
3522.00   8.05978107   0.27772978
3523.00   7.91834259   0.27537340
3524.00   7.44577217   0.26958102
3525.00   7.86290359   0.27530646
3526.00   7.87595320   0.27596530
3527.00   7.97562265   0.27716079
3528.00   8.03183270   0.27678141
3529.00   7.89867735   0.27686051
3530.00   7.89296532   0.27809310
3531.00   8.08751011   0.27942708
3532.00   8.23605537   0.27946520
3533.00   8.37745094   0.28263301
3534.00   8.16409111   0.27994591
3535.00   7.97450399   0.27678034
3536.00   8.11902142   0.27835682
3537.00   8.01066875   0.27778280
3538.00   8.09124565   0.27975160
3539.00   8.21505165   0.28119826
3540.00   8.08229065   0.27965209
3541.00   8.28551006   0.28334546
3542.00   8.34539986   0.28458226
3543.00   8.45311832   0.28458506
3544.00   8.72747898   0.28707641
3545.00   8.31448746   0.28217614
3546.00   8.14167595   0.28027335
3547.00   8.01409435   0.27871099
3548.00   8.08162594   0.27885616
3549.00   8.40244579   0.28229031
3550.00   8.37218094   0.28207850
3551.00   8.15249920   0.27923328
3552.00   7.87519836   0.27593079
3553.00   8.08476257   0.27722859
3554.00   8.11692047   0.27740374
3555.00   8.16024113   0.27989128
3556.00   7.86967087   0.27564132
3557.00   8.12859058   0.27814957
3558.00   8.05833435   0.27798992
3559.00   7.90341377   0.27411270
3560.00   7.80790854   0.27278176
3561.00   8.20162010   0.27809808
3562.00   8.13934231   0.27576336
3563.00   7.98682880   0.27310219
3564.00   8.15413952   0.27370197
3565.00   8.00290012   0.27187508
3566.00   7.75377798   0.26718876
3567.00   7.58544254   0.26506031
3568.00   7.88836241   0.26868954
3569.00   7.84375763   0.26765537
3570.00   7.60898352   0.26512855
3571.00   7.76973724   0.26549029
3572.00   8.03320408   0.26745474
3573.00   7.80080175   0.26588729
3574.00   7.63056850   0.26471317
3575.00   7.75360870   0.26490369
3576.00   7.61448383   0.26198125
3577.00   7.58200264   0.25974101
3578.00   7.64811611   0.25883728
3579.00   7.45178413   0.25622371
3580.00   7.49406099   0.25621653
3581.00   7.72439909   0.25720063
3582.00   7.63694000   0.25398135
3583.00   7.36587191   0.25031155
3584.00   7.37712574   0.25077131
3585.00   7.45804977   0.25056940
3586.00   7.24054670   0.24633685
3587.00   7.17815924   0.24655148
3588.00   7.18146896   0.24772134
3589.00   7.32644224   0.24868263
3590.00   7.23022175   0.24693878
3591.00   7.21628094   0.24619448
3592.00   7.13796377   0.24319045
3593.00   7.27773714   0.24562928
3594.00   6.99980164   0.24276458
3595.00   7.17860651   0.24342142
3596.00   7.10978746   0.24184616
3597.00   7.05686140   0.24268022
3598.00   7.10023451   0.24244805
3599.00   6.87933445   0.23824489
3600.00   7.19667244   0.24160460
3601.00   7.19362259   0.24013434
3602.00   7.24889421   0.23833747
3603.00   7.14099169   0.23709995
3604.00   7.31934214   0.23914184
3605.00   7.20397043   0.23692799
3606.00   7.32595348   0.23755185
3607.00   7.27024126   0.23709787
3608.00   7.19989967   0.23715220
3609.00   7.12870646   0.23564273
3610.00   7.42515326   0.23858717
3611.00   7.39148951   0.23953150
3612.00   7.21797132   0.23829523
3613.00   7.18642330   0.23762606
3614.00   7.38924980   0.23911870
3615.00   7.27447081   0.23709089
3616.00   7.17940903   0.23407765
3617.00   7.39106131   0.23502415
3618.00   7.20276308   0.23313081
3619.00   7.12798262   0.23173650
3620.00   7.27486420   0.23393154
3621.00   7.16870785   0.23384194
3622.00   7.20538712   0.23285423
3623.00   7.14260817   0.23159903
3624.00   7.08072519   0.23116958
3625.00   7.23653698   0.23279512
3626.00   7.29953623   0.23337843
3627.00   7.56264782   0.23610258
3628.00   7.44320154   0.23472510
3629.00   7.11910391   0.23090838
3630.00   7.10057163   0.22970106
3631.00   7.46120453   0.23229159
3632.00   7.39609432   0.23174828
3633.00   7.36865616   0.23102137
3634.00   7.12255621   0.22809204
3635.00   7.41176844   0.23074916
3636.00   7.39496994   0.23056415
3637.00   7.28343439   0.22966656
3638.00   7.41314793   0.22927463
3639.00   7.27946997   0.22775146
3640.00   7.43514681   0.23034674
3641.00   7.48671675   0.23109022
3642.00   7.25578403   0.22833480
3643.00   7.26618052   0.22824369
3644.00   7.27807236   0.22702478
3645.00   7.19130707   0.22652857
3646.00   7.13887310   0.22881673
3647.00   7.10994387   0.23403139
3648.00   7.04259920   0.23927315
3649.00   7.26127386   0.24426168
3650.00   7.27351141   0.24354842
3651.00   7.18349791   0.23887330
3652.00   7.25850964   0.23628385
3653.00   7.03432369   0.23168007
3654.00   6.87733221   0.22822493
3655.00   7.04809380   0.22693193
3656.00   7.32498789   0.22623484
3657.00   7.33528852   0.22431962
3658.00   7.20085192   0.22068657
3659.00   7.14941549   0.21985067
3660.00   7.21780729   0.22445543
3661.00   7.10132217   0.22546366
3662.00   6.90710115   0.22206661
3663.00   7.19310045   0.22412258
3664.00   7.29803944   0.22364323
3665.00   7.12008953   0.21780282
3666.00   7.10181475   0.21447594
3667.00   7.17883253   0.21361661
3668.00   7.13248873   0.21277142
3669.00   7.19880342   0.21339475
3670.00   7.26223373   0.21276751
3671.00   7.13669109   0.21153153
3672.00   6.94663668   0.20954044
3673.00   7.07870197   0.21084458
3674.00   7.15150785   0.21081419
3675.00   7.14190674   0.21074735
3676.00   7.03790331   0.20842044
3677.00   6.98299408   0.20679729
3678.00   7.09851646   0.20799407
3679.00   7.01674366   0.20636037
3680.00   6.93656254   0.20409018
3681.00   6.97021770   0.20550323
3682.00   7.21596575   0.20823228
3683.00   7.09971523   0.20652083
3684.00   7.17533398   0.20619446
3685.00   7.09601784   0.20392451
3686.00   7.03028440   0.20281692
3687.00   6.89554358   0.20154527
3688.00   6.92666054   0.20223051
3689.00   7.01870155   0.20360337
3690.00   7.05070686   0.20402128
3691.00   7.07850981   0.20415469
3692.00   6.93689775   0.20157740
3693.00   6.99819040   0.20176464
3694.00   7.06305742   0.20245002
3695.00   6.95645046   0.19813013
3696.00   7.17126799   0.21260169
3697.00   7.22176695   0.21790889
3698.00   6.97056913   0.20344649
3699.00   6.93733549   0.19861448
3700.00   6.95532036   0.20080814
3701.00   6.88842249   0.19901997
3702.00   6.94120407   0.19722505
3703.00   6.97012138   0.19676003
3704.00   6.79213381   0.19525895
3705.00   6.76240206   0.19434945
3706.00   6.81678486   0.19421610
3707.00   6.76540804   0.19339596
3708.00   6.70905256   0.19186951
3709.00   6.76218557   0.19141565
3710.00   6.79381561   0.19244598
3711.00   7.01258373   0.19448406
3712.00   7.11175728   0.19512744
3713.00   6.94123030   0.19235468
3714.00   6.72087669   0.19005753
3715.00   6.57207155   0.18760446
3716.00   6.67976761   0.18829405
3717.00   6.82576847   0.19005705
3718.00   6.86554337   0.18899955
3719.00   6.68198538   0.18593825
3720.00   6.68244600   0.18496305
3721.00   6.77390432   0.20132543
3722.00   6.84981394   0.19148365
3723.00   6.94733953   0.18657583
3724.00   6.86675739   0.18635115
3725.00   6.80650139   0.18606782
3726.00   6.87675619   0.18600139
3727.00   6.80818748   0.18512757
3728.00   6.68708229   0.18355834
3729.00   6.76624584   0.18382466
3730.00   6.75075245   0.18282095
3731.00   6.63289881   0.18079595
3732.00   6.79594231   0.18175271
3733.00   6.77139139   0.18024205
3734.00   6.67048597   0.17858160
3735.00   6.67524672   0.17848021
3736.00   6.61977673   0.17783137
3737.00   6.67506361   0.17853989
3738.00   6.66642857   0.17918617
3739.00   6.61358261   0.17930427
3740.00   6.63106537   0.17900071
3741.00   6.57118416   0.17745985
3742.00   6.54752207   0.17614324
3743.00   6.43567467   0.17391378
3744.00   6.43812037   0.17314832
3745.00   6.65403128   0.17455366
3746.00   6.61561012   0.17289655
3747.00   6.60286999   0.17248017
3748.00   6.60571241   0.17320220
3749.00   6.57649851   0.17259955
3750.00   6.65969467   0.17363410
3751.00   6.59150171   0.17365760
3752.00   6.68857098   0.17459114
3753.00   6.49199533   0.17200521
3754.00   6.58498907   0.17273590
3755.00   6.67421532   0.17244133
3756.00   6.61610508   0.17149679
3757.00   6.80937958   0.17282015
3758.00   6.58195114   0.17116605
3759.00   6.79680824   0.17186359
3760.00   6.57884455   0.17025469
3761.00   6.64267111   0.16996939
3762.00   6.60051250   0.16922821
3763.00   6.48083925   0.16810924
3764.00   6.50966597   0.16719574
3765.00   6.58387852   0.16794513
3766.00   6.52460718   0.16726148
3767.00   6.58514547   0.16691670
3768.00   6.54549026   0.16649652
3769.00   6.65398550   0.16785093
3770.00   6.69571209   0.16793522
3771.00   6.54461384   0.16710633
3772.00   6.50721169   0.16670264
3773.00   6.55960131   0.16626501
3774.00   6.48032045   0.16547567
3775.00   6.43116140   0.16544123
3776.00   6.50411558   0.16585368
3777.00   6.66571712   0.16662420
3778.00   6.74157047   0.16709016
3779.00   6.54999399   0.16553029
3780.00   6.40306711   0.16414078
3781.00   6.52448177   0.16511907
3782.00   6.59739923   0.16581833
3783.00   6.49860811   0.16483030
3784.00   6.41430283   0.16338810
3785.00   6.47838640   0.16306482
3786.00   6.53612614   0.16314434
3787.00   6.39435530   0.16106306
3788.00   6.47076607   0.16191472
3789.00   6.53251123   0.16171223
3790.00   6.49234819   0.16129130
3791.00   6.51052856   0.16116382
3792.00   6.50565910   0.16105375
3793.00   6.47571898   0.16029115
3794.00   6.55151081   0.15995806
3795.00   6.61262226   0.16053908
3796.00   6.58926535   0.16003101
3797.00   6.58920288   0.15939121
3798.00   6.60847998   0.15939571
3799.00   6.51762152   0.15868321
3800.00   6.38045883   0.15810519
3801.00   6.51285076   0.15923296
3802.00   6.46597719   0.15874223
3803.00   6.45242643   0.15863648
3804.00   6.52273893   0.15860300
3805.00   6.55485106   0.15830547
3806.00   6.53233147   0.15751058
3807.00   6.42059946   0.15656038
3808.00   6.59972620   0.15852344
3809.00   6.61727333   0.15851265
3810.00   6.63147879   0.15771401
3811.00   6.70889139   0.15808263
3812.00   6.67927408   0.15704800
3813.00   6.52264595   0.15473703
3814.00   6.70238113   0.15661120
3815.00   6.75251007   0.15712377
3816.00   6.65333271   0.15549985
3817.00   6.63781166   0.15516841
3818.00   6.60305929   0.15486850
3819.00   6.67979908   0.15488529
3820.00   6.74868298   0.15507410
3821.00   6.67388153   0.15476270
3822.00   6.63087940   0.15434152
3823.00   6.74142694   0.15474343
3824.00   6.76295280   0.15465778
3825.00   6.65056705   0.15298770
3826.00   6.45714283   0.15072450
3827.00   6.55888557   0.15184303
3828.00   6.69813490   0.15323421
3829.00   6.72459841   0.15366830
3830.00   6.72969055   0.15379675
3831.00   6.92557859   0.15451387
3832.00   6.93514824   0.15417744
3833.00   6.87210417   0.15339828
3834.00   6.78130960   0.15232219
3835.00   6.86392498   0.15276413
3836.00   6.75776196   0.15181987
3837.00   6.85417223   0.15233712
3838.00   6.83529186   0.15277696
3839.00   6.80867815   0.15294483
3840.00   6.86319828   0.15336168
3841.00   6.90139866   0.15406409
3842.00   7.09050608   0.15583248
3843.00   6.86483431   0.15451662
3844.00   6.75477266   0.15237732
3845.00   6.57297230   0.14962950
3846.00   6.71000051   0.15006325
3847.00   6.93930101   0.15167992
3848.00   6.71025133   0.14959408
3849.00   6.75301218   0.14968202
3850.00   6.93591309   0.15065996
3851.00   6.81896687   0.14978962
3852.00   6.74709177   0.14878051
3853.00   6.78639364   0.14815632
3854.00   6.75361681   0.14755586
3855.00   6.92229414   0.14891417
3856.00   6.99862051   0.14931558
3857.00   6.91380119   0.14810568
3858.00   6.89168835   0.14742845
3859.00   6.80302429   0.14638032
3860.00   6.74816608   0.14617798
3861.00   6.77003002   0.14678755
3862.00   6.81616879   0.14694566
3863.00   6.83661556   0.14714293
3864.00   6.83557320   0.14698178
3865.00   6.96488810   0.14725599
3866.00   6.88403034   0.14639355
3867.00   6.83214569   0.14570026
3868.00   6.79968548   0.14508109
3869.00   6.57195282   0.14256242
3870.00   6.53087378   0.14145517
3871.00   6.79487801   0.14402494
3872.00   6.84487629   0.14513487
3873.00   6.76851511   0.14427984
3874.00   6.77390289   0.14463128
3875.00   6.73092365   0.14399379
3876.00   6.72867584   0.14375655
3877.00   6.84070492   0.14400093
3878.00   6.74349260   0.14219555
3879.00   6.73466825   0.14173651
3880.00   6.68214178   0.14114808
3881.00   6.61890268   0.14028141
3882.00   6.68041468   0.14093179
3883.00   6.72845459   0.14116754
3884.00   6.74854660   0.14124255
3885.00   6.71564722   0.14086521
3886.00   6.79161167   0.14073457
3887.00   6.69877195   0.13949272
3888.00   6.67793846   0.13944024
3889.00   6.59580040   0.13875973
3890.00   6.53891182   0.13830480
3891.00   6.59062290   0.13869426
3892.00   6.67029333   0.13944580
3893.00   6.66062546   0.13905311
3894.00   6.69644451   0.13886727
3895.00   6.69409084   0.13917574
3896.00   6.59684849   0.13878229
3897.00   6.59047937   0.13846774
3898.00   6.58805990   0.13821436
3899.00   6.48649931   0.13711140
3900.00   6.53845215   0.13727503
3901.00   6.61901474   0.13808914
3902.00   6.42359066   0.13622317
3903.00   6.33898592   0.13511652
3904.00   6.44863176   0.13650027
3905.00   6.44340277   0.13775948
3906.00   6.37334347   0.13836603
3907.00   6.30124044   0.13813403
3908.00   6.33253956   0.13843311
3909.00   6.27899075   0.13820013
3910.00   6.21888494   0.13786024
3911.00   6.27700520   0.13882880
3912.00   6.18528032   0.13834241
3913.00   6.36040115   0.13833742
3914.00   6.28711462   0.13587087
3915.00   6.25517845   0.13399553
3916.00   6.24694967   0.13276657
3917.00   6.20387459   0.13179705
3918.00   6.19641972   0.13134393
3919.00   6.28057289   0.13090314
3920.00   6.14287710   0.12943561
3921.00   6.14917183   0.14073680
3922.00   5.99766684   0.14780009
3923.00   6.15261602   0.13446683
3924.00   6.12049437   0.12877277
3925.00   6.11891556   0.12829573
3926.00   6.20351410   0.12824161
3927.00   6.18779421   0.12771167
3928.00   6.08976603   0.12651661
3929.00   6.07743502   0.12621589
3930.00   6.05986500   0.12661989
3931.00   5.97692490   0.12684065
3932.00   5.79622459   0.12580228
3933.00   5.51897144   0.12327763
3934.00   5.41405869   0.12168489
3935.00   5.70510006   0.12296695
3936.00   5.98374224   0.12426874
3937.00   6.13769388   0.12552135
3938.00   6.18409157   0.12634608
3939.00   6.10337687   0.12566070
3940.00   6.07502794   0.12561557
3941.00   6.06118536   0.12591165
3942.00   6.05247927   0.12585466
3943.00   6.00059271   0.12580825
3944.00   6.07500982   0.12654084
3945.00   5.96146011   0.12509681
3946.00   5.85741520   0.12348638
3947.00   5.98782921   0.12472840
3948.00   6.00312948   0.12473137
3949.00   6.04349232   0.12495176
3950.00   6.10291386   0.12481082
3951.00   6.01339006   0.12378945
3952.00   5.92693472   0.12308322
3953.00   5.85127306   0.12248287
3954.00   5.88047886   0.12273657
3955.00   6.10371685   0.12378715
3956.00   6.14080143   0.12385137
3957.00   6.11141491   0.12390336
3958.00   6.05918264   0.12371319
3959.00   5.95346594   0.12306835
3960.00   5.86414671   0.12249367
3961.00   5.95222473   0.12298314
3962.00   5.90629530   0.12193862
3963.00   5.94241905   0.12165471
3964.00   5.95555115   0.12053699
3965.00   6.04763365   0.12101272
3966.00   5.89036608   0.12000871
3967.00   5.69477749   0.11852659
3968.00   5.68992472   0.11802734
3969.00   5.69658041   0.11780788
3970.00   5.89370108   0.11953907
3971.00   6.08661270   0.12130271
3972.00   6.01181364   0.12061714
3973.00   5.97536898   0.12049576
3974.00   6.07154083   0.12134609
3975.00   6.17027950   0.12185437
3976.00   6.23744535   0.12231277
3977.00   6.20625830   0.12234677
3978.00   6.12848520   0.12206767
3979.00   6.10949278   0.12190430
3980.00   6.08953714   0.12174866
3981.00   6.08041763   0.12179331
3982.00   6.13427210   0.12194611
3983.00   6.11850023   0.12144415
3984.00   6.12924862   0.12111676
3985.00   6.22185898   0.12205484
3986.00   6.23070383   0.12235531
3987.00   6.16022778   0.12198583
3988.00   6.24557161   0.12238535
3989.00   6.29324341   0.12253190
3990.00   6.27992153   0.12217383
3991.00   6.26246786   0.12233623
3992.00   6.18474674   0.12181766
3993.00   6.24203253   0.12269540
3994.00   6.28388500   0.12339888
3995.00   6.10078239   0.12233934
3996.00   5.99602747   0.12118331
3997.00   6.28538895   0.12243777
3998.00   6.30656052   0.12225623
3999.00   6.10392475   0.12066399
4000.00   6.12414932   0.12069008
4001.00   6.14173365   0.12005397
4002.00   6.23575354   0.12037543
4003.00   6.19553614   0.11998589
4004.00   6.22927809   0.11964291
4005.00   6.23651457   0.11953619
4006.00   6.26853275   0.12028409
4007.00   6.16185808   0.11979104
4008.00   6.28358507   0.12060144
4009.00   6.29248810   0.12060101
4010.00   6.31860352   0.12074628
4011.00   6.30571365   0.12077712
4012.00   6.26380396   0.12032253
4013.00   6.31368637   0.12028780
4014.00   6.36653948   0.12024909
4015.00   6.29956198   0.12009461
4016.00   6.28841352   0.12062254
4017.00   6.40068674   0.12181851
4018.00   6.48341131   0.12334832
4019.00   6.43529940   0.12426469
4020.00   6.23377228   0.12366140
4021.00   6.16352701   0.12331659
4022.00   6.32158184   0.12406774
4023.00   6.41669607   0.12405067
4024.00   6.40381861   0.12341613
4025.00   6.41337633   0.12259880
4026.00   6.41754246   0.12132379
4027.00   6.42977953   0.12084135
4028.00   6.38109255   0.12067592
4029.00   6.32712698   0.12032375
4030.00   6.19811869   0.11914340
4031.00   6.23280430   0.11883917
4032.00   6.24206877   0.11822364
4033.00   6.32396412   0.11871483
4034.00   6.42855930   0.11947017
4035.00   6.43235493   0.11957739
4036.00   6.41036654   0.11929005
4037.00   6.44506788   0.11900964
4038.00   6.43430567   0.11854111
4039.00   6.34850645   0.11779871
4040.00   6.29791212   0.11731695
4041.00   6.24719334   0.11724622
4042.00   6.22718096   0.11789300
4043.00   6.33199787   0.12430423
4044.00   6.37623119   0.13329241
4045.00   6.33941460   0.13785645
4046.00   6.31260633   0.13915056
4047.00   6.24349403   0.13601035
4048.00   6.28680515   0.12876552
4049.00   6.20218706   0.12073207
4050.00   6.09717274   0.11596373
4051.00   6.08204222   0.11472996
4052.00   5.99736881   0.11428531
4053.00   6.00773478   0.11461338
4054.00   5.91380787   0.11392272
4055.00   5.90002060   0.11325739
4056.00   6.04981041   0.11346177
4057.00   6.21351957   0.11435453
4058.00   6.26385975   0.11467906
4059.00   6.17238855   0.11353031
4060.00   6.18524313   0.11320285
4061.00   6.14932156   0.11281324
4062.00   6.05191898   0.11197419
4063.00   5.99787426   0.11153694
4064.00   6.04743814   0.11168798
4065.00   5.97993422   0.11103071
4066.00   5.99618673   0.11144027
4067.00   6.03595400   0.11168648
4068.00   6.07231951   0.11178809
4069.00   5.95325470   0.11071280
4070.00   5.86973095   0.10986727
4071.00   6.01795053   0.11086141
4072.00   6.08671379   0.11135109
4073.00   5.88037062   0.11024077
4074.00   5.91189480   0.11063495
4075.00   5.86684418   0.11115744
4076.00   5.88841343   0.11249583
4077.00   5.90444613   0.11241350
4078.00   5.89109325   0.11224554
4079.00   5.83861399   0.11162031
4080.00   5.95667362   0.11138072
4081.00   5.99500608   0.11124926
4082.00   5.79615402   0.10993653
4083.00   5.69114828   0.10863495
4084.00   5.80858183   0.10891374
4085.00   5.72124100   0.10832632
4086.00   5.66521883   0.10769130
4087.00   5.65877151   0.10702349
4088.00   5.62415934   0.10624328
4089.00   5.52341127   0.10507641
4090.00   5.48454094   0.10435127
4091.00   5.59198999   0.10458990
4092.00   5.61353731   0.10473216
4093.00   5.65396261   0.10515691
4094.00   5.76812220   0.10566293
4095.00   5.74558258   0.10544582
4096.00   5.67347050   0.10490660
4097.00   5.67507648   0.10457904
4098.00   5.61916780   0.10389814
4099.00   5.54891205   0.10313237
4100.00   5.58040905   0.10313699
4101.00   5.61473989   0.10323122
4102.00   5.64579391   0.10326277
4103.00   5.67225075   0.10341259
4104.00   5.65134239   0.10359516
4105.00   5.60940313   0.10344137
4106.00   5.58730030   0.10308632
4107.00   5.55725193   0.10308912
4108.00   5.58460379   0.10342105
4109.00   5.64186716   0.10346196
4110.00   5.51411343   0.10234968
4111.00   5.59386826   0.10291895
4112.00   5.65998983   0.10380559
4113.00   5.62235117   0.10337315
4114.00   5.66570616   0.10381952
4115.00   5.57940626   0.10282148
4116.00   5.63315153   0.10320593
4117.00   5.69109917   0.10336908
4118.00   5.58359289   0.10230006
4119.00   5.67161131   0.10281523
4120.00   5.64341879   0.10242381
4121.00   5.72495556   0.10278396
4122.00   5.77538681   0.10310902
4123.00   5.73258448   0.10282268
4124.00   5.68350697   0.10243760
4125.00   5.56325054   0.10152798
4126.00   5.50888777   0.10113546
4127.00   5.58405972   0.10157462
4128.00   5.60140181   0.10149243
4129.00   5.68775463   0.10211146
4130.00   5.74236822   0.10250922
4131.00   5.58405638   0.10143642
4132.00   5.59276152   0.10165890
4133.00   5.72661304   0.10265227
4134.00   5.72397757   0.10206003
4135.00   5.74004173   0.10162125
4136.00   5.74258757   0.10184824
4137.00   5.69416714   0.10182192
4138.00   5.74940443   0.10229390
4139.00   5.82098198   0.10284645
4140.00   5.79668808   0.10264867
4141.00   5.76414871   0.10219226
4142.00   5.79747963   0.10177501
4143.00   5.78001547   0.10127769
4144.00   5.74791002   0.10124673
4145.00   5.75767612   0.10119558
4146.00   5.74958467   0.10093181
4147.00   5.71689081   0.10079335
4148.00   5.75036907   0.10105270
4149.00   5.82645559   0.10174904
4150.00   5.82536650   0.10221104
4151.00   5.80372095   0.10241741
4152.00   5.72223043   0.10199928
4153.00   5.82346821   0.10185350
4154.00   5.83088493   0.10130470
4155.00   5.75359392   0.10042293
4156.00   5.82491159   0.10081398
4157.00   5.80979347   0.10066537
4158.00   5.90217686   0.10120589
4159.00   5.88968992   0.10146204
4160.00   5.84435511   0.10109589
4161.00   5.81312895   0.10110065
4162.00   5.80627966   0.10191222
4163.00   5.83694124   0.10257687
4164.00   5.74414682   0.10191689
4165.00   5.75012970   0.10176609
4166.00   5.80863428   0.10161913
4167.00   5.92258406   0.10139505
4168.00   5.81698608   0.10022229
4169.00   5.80661678   0.09998795
4170.00   5.86013889   0.10004541
4171.00   5.84451723   0.09981012
4172.00   5.83278942   0.09949721
4173.00   5.82912064   0.09933838
4174.00   5.80971479   0.09914032
4175.00   5.79908085   0.09909881
4176.00   5.79956388   0.09911207
4177.00   5.82220840   0.09918209
4178.00   5.85922098   0.09952357
4179.00   5.87070227   0.09945461
4180.00   5.80393314   0.09888135
4181.00   5.74259233   0.09828459
4182.00   5.75712585   0.09794302
4183.00   5.81389809   0.09840451
4184.00   5.81582308   0.09851775
4185.00   5.76307917   0.09820780
4186.00   5.84386396   0.09842914
4187.00   5.89931393   0.09847538
4188.00   5.77953053   0.09768662
4189.00   5.72790241   0.09735181
4190.00   5.76387691   0.09796400
4191.00   5.76940393   0.09818528
4192.00   5.75409842   0.09782073
4193.00   5.69369316   0.09726351
4194.00   5.70772219   0.09711730
4195.00   5.63172913   0.09633305
4196.00   5.65416050   0.09607958
4197.00   5.65113640   0.09598067
4198.00   5.62479115   0.09563890
4199.00   5.72569752   0.09615497
4200.00   5.62298536   0.09571583
4201.00   5.50944281   0.09508011
4202.00   5.51980686   0.09508250
4203.00   5.58940983   0.09544361
4204.00   5.66088247   0.09603748
4205.00   5.64027452   0.09614717
4206.00   5.54914236   0.09570198
4207.00   5.46567822   0.09478553
4208.00   5.47526407   0.09488726
4209.00   5.55841208   0.09569474
4210.00   5.52239895   0.09526124
4211.00   5.42307043   0.09459443
4212.00   5.45950794   0.09485570
4213.00   5.47787476   0.09468322
4214.00   5.44397259   0.09420051
4215.00   5.49362946   0.09443119
4216.00   5.43641996   0.09396779
4217.00   5.32732105   0.09323070
4218.00   5.32270241   0.09324361
4219.00   5.34264231   0.09336647
4220.00   5.40786505   0.09362955
4221.00   5.35643578   0.09287678
4222.00   5.26746464   0.09205722
4223.00   5.29141045   0.09201235
4224.00   5.28414440   0.09153493
4225.00   5.19842386   0.09066363
4226.00   5.17988253   0.09069318
4227.00   5.16162825   0.09095401
4228.00   5.14624929   0.09106464
4229.00   5.19187021   0.09154397
4230.00   5.18947601   0.09128383
4231.00   5.12241173   0.09111322
4232.00   5.17247677   0.09146675
4233.00   5.18392420   0.09125760
4234.00   5.11085701   0.09080122
4235.00   5.13523531   0.09085660
4236.00   5.13186979   0.09115623
4237.00   5.01807261   0.09034386
4238.00   5.06534767   0.09054602
4239.00   5.00492716   0.09001101
4240.00   4.94762325   0.08920277
4241.00   4.95945168   0.08918857
4242.00   5.00466013   0.08934690
4243.00   4.94625425   0.08955684
4244.00   4.93996191   0.09061960
4245.00   4.97271061   0.09166059
4246.00   4.89284706   0.09131248
4247.00   4.89318895   0.09094062
4248.00   4.86902666   0.09013586
4249.00   4.85140085   0.08885953
4250.00   4.84886312   0.08804222
4251.00   4.97064686   0.08859289
4252.00   5.08548832   0.08930540
4253.00   5.03647566   0.08909263
4254.00   4.99358797   0.08879815
4255.00   4.94199514   0.08848342
4256.00   4.94897270   0.08852541
4257.00   5.06200600   0.08899741
4258.00   5.03360701   0.08866324
4259.00   4.94551849   0.08804413
4260.00   4.94962788   0.08799038
4261.00   4.95460463   0.08805428
4262.00   4.92632914   0.08786447
4263.00   4.92939568   0.08791355
4264.00   4.97401857   0.08825671
4265.00   4.90295696   0.08758303
4266.00   4.80200624   0.08669944
4267.00   4.84271097   0.08701316
4268.00   4.92092466   0.08728720
4269.00   4.87293959   0.08665414
4270.00   4.79962349   0.08581617
4271.00   4.90326357   0.08631735
4272.00   4.85478067   0.08613287
4273.00   4.72964001   0.08533950
4274.00   4.72649240   0.08569463
4275.00   4.78486204   0.08632654
4276.00   4.75647116   0.08611781
4277.00   4.74043846   0.08575605
4278.00   4.71579933   0.08551437
4279.00   4.80535793   0.08592752
4280.00   4.89568520   0.08642028
4281.00   4.84490538   0.08623574
4282.00   4.80342770   0.08596423
4283.00   4.76452065   0.08543900
4284.00   4.82317972   0.08550799
4285.00   4.74579382   0.08489884
4286.00   4.76554823   0.08496451
4287.00   4.81782722   0.08517811
4288.00   4.78562975   0.08473043
4289.00   4.71833038   0.08409746
4290.00   4.67414284   0.08397024
4291.00   4.70519257   0.08432632
4292.00   4.70934200   0.08418912
4293.00   4.67411184   0.08371189
4294.00   4.64583063   0.08362406
4295.00   4.67344093   0.08369262
4296.00   4.71350622   0.08364721
4297.00   4.68834972   0.08343222
4298.00   4.70161629   0.08317899
4299.00   4.70333004   0.08286040
4300.00   4.65567875   0.08237160
4301.00   4.69840288   0.08237518
4302.00   4.68292570   0.08227763
4303.00   4.62086678   0.08194535
4304.00   4.55212212   0.08183081
4305.00   4.59257650   0.08198308
4306.00   4.59994507   0.08169190
4307.00   4.57948017   0.08133593
4308.00   4.49847555   0.08065794
4309.00   4.52601624   0.08086709
4310.00   4.50994301   0.08117894
4311.00   4.45284796   0.08160612
4312.00   4.54593992   0.08300409
4313.00   4.44058418   0.08273274
4314.00   4.45763779   0.08275733
4315.00   4.37660170   0.08226980
4316.00   4.48180199   0.08239736
4317.00   4.47723246   0.08214469
4318.00   4.42689180   0.08225860
4319.00   4.51149940   0.08307246
4320.00   4.53994226   0.08309023
4321.00   4.46555185   0.08240680
4322.00   4.34032774   0.08137472
4323.00   4.43943024   0.08154406
4324.00   4.34010983   0.08056748
4325.00   4.31035280   0.08030204
4326.00   4.36269808   0.08033668
4327.00   4.30962896   0.07992242
4328.00   4.37808228   0.08023889
4329.00   4.40965652   0.08057221
4330.00   4.42966795   0.08045182
4331.00   4.35614252   0.07965539
4332.00   4.31761026   0.07951959
4333.00   4.32256937   0.07960624
4334.00   4.28726387   0.07922900
4335.00   4.27916956   0.07911777
4336.00   4.32494831   0.07934785
4337.00   4.31178379   0.07920504
4338.00   4.27276421   0.07890865
4339.00   4.32945633   0.07912305
4340.00   4.32849455   0.07920902
4341.00   4.33451128   0.07920390
4342.00   4.32149029   0.07914348
4343.00   4.30326748   0.07940561
4344.00   4.31475639   0.07965564
4345.00   4.33668041   0.08008969
4346.00   4.28912544   0.08016816
4347.00   4.32620192   0.08058003
4348.00   4.37816191   0.08091491
4349.00   4.20671844   0.07939578
4350.00   4.24994612   0.07890213
4351.00   4.28839588   0.07916027
4352.00   4.21808863   0.07884735
4353.00   4.24154615   0.07931358
4354.00   4.24609613   0.08262442
4355.00   4.26126909   0.09318148
4356.00   4.45210648   0.10402556
4357.00   4.50958395   0.10972230
4358.00   4.37429667   0.11021667
4359.00   4.31793928   0.10592612
4360.00   4.26691437   0.09597444
4361.00   4.29523659   0.08814483
4362.00   4.31542778   0.08333196
4363.00   4.28350925   0.08104309
4364.00   4.27177238   0.08015927
4365.00   4.41234541   0.08058603
4366.00   4.45706606   0.08047180
4367.00   4.43040037   0.08013766
4368.00   4.42699909   0.08006599
4369.00   4.42082691   0.07989826
4370.00   4.36727905   0.07975350
4371.00   4.32521200   0.07979051
4372.00   4.32742786   0.08000865
4373.00   4.35769081   0.08022317
4374.00   4.34893894   0.08004213
4375.00   4.39503288   0.08010659
4376.00   4.44193459   0.07989159
4377.00   4.38705015   0.07910033
4378.00   4.39801025   0.07913215
4379.00   4.40701771   0.07904688
4380.00   4.34416580   0.07848994
4381.00   4.32334423   0.07829387
4382.00   4.38083363   0.07818122
4383.00   4.40240717   0.07804354
4384.00   4.41319609   0.07788152
4385.00   4.42911530   0.07799638
4386.00   4.43289566   0.07822200
4387.00   4.37802887   0.07782292
4388.00   4.38936901   0.07793080
4389.00   4.35837030   0.07755861
4390.00   4.33773613   0.07793766
4391.00   4.44632578   0.07841413
4392.00   4.46268511   0.07824235
4393.00   4.33775520   0.07727519
4394.00   4.42711163   0.07780875
4395.00   4.34793615   0.07751782
4396.00   4.41701174   0.07801038
4397.00   4.37704182   0.07802723
4398.00   4.39458847   0.07829870
4399.00   4.50399494   0.07904192
4400.00   4.50066376   0.07901462
4401.00   4.43106794   0.07847679
4402.00   4.46539307   0.07847412
4403.00   4.46906900   0.07845652
4404.00   4.52322578   0.07839661
4405.00   4.48128843   0.07782730
4406.00   4.45544863   0.07782257
4407.00   4.45719719   0.07795906
4408.00   4.49006414   0.07828374
4409.00   4.41341829   0.07806005
4410.00   4.42490482   0.07807423
4411.00   4.43621159   0.07815273
4412.00   4.42243099   0.07830840
4413.00   4.52639961   0.07894095
4414.00   4.53287601   0.07893378
4415.00   4.48560381   0.07882404
4416.00   4.47053719   0.07860769
4417.00   4.48844194   0.07833634
4418.00   4.59438133   0.07870170
4419.00   4.59022856   0.07846143
4420.00   4.54103470   0.07822117
4421.00   4.53566027   0.07814419
4422.00   4.57712221   0.07826324
4423.00   4.53238153   0.07794504
4424.00   4.55129290   0.07811725
4425.00   4.69161844   0.07887107
4426.00   4.59504414   0.07837965
4427.00   4.55376577   0.07788242
4428.00   4.62276173   0.07832499
4429.00   4.56906223   0.07797030
4430.00   4.57616472   0.07793063
4431.00   4.58879423   0.07804890
4432.00   4.52752256   0.07774762
4433.00   4.60330629   0.07789982
4434.00   4.74075747   0.07850002
4435.00   4.75215483   0.07881057
4436.00   4.68764353   0.07862826
4437.00   4.59218407   0.07792839
4438.00   4.65415525   0.07838865
4439.00   4.72823715   0.07879637
4440.00   4.59255362   0.07801389
4441.00   4.66856813   0.07811839
4442.00   4.67325592   0.07813727
4443.00   4.65027380   0.07801538
4444.00   4.62012625   0.07779522
4445.00   4.61498642   0.07776432
4446.00   4.64868355   0.07775575
4447.00   4.71083403   0.07889204
4448.00   4.69514513   0.07919139
4449.00   4.68533087   0.07837281
4450.00   4.70902395   0.07809839
4451.00   4.64835691   0.07791388
4452.00   4.63647509   0.07776845
4453.00   4.66480398   0.07769304
4454.00   4.66737318   0.07778358
4455.00   4.70644569   0.07813566
4456.00   4.71404600   0.07807098
4457.00   4.70299816   0.07800121
4458.00   4.72780371   0.07817183
4459.00   4.75489473   0.07816537
4460.00   4.77665758   0.07823560
4461.00   4.75870323   0.07830334
4462.00   4.75906420   0.07850401
4463.00   4.74156427   0.07845107
4464.00   4.73161793   0.07825598
4465.00   4.78091097   0.07850477
4466.00   4.70899200   0.07807255
4467.00   4.70663786   0.07782087
4468.00   4.74686813   0.07790857
4469.00   4.76776075   0.07808047
4470.00   4.81226969   0.07849295
4471.00   4.70776892   0.07799632
4472.00   4.74887609   0.07829849
4473.00   4.84188318   0.07903159
4474.00   4.76719856   0.07853252
4475.00   4.71750832   0.07796234
4476.00   4.74267960   0.07785086
4477.00   4.87012196   0.07840512
4478.00   4.79410028   0.07787233
4479.00   4.64349365   0.07700290
4480.00   4.76171589   0.07776159
4481.00   4.81757927   0.07794041
4482.00   4.82628393   0.07782725
4483.00   4.84409189   0.07815754
4484.00   4.74230576   0.07785878
4485.00   4.70626259   0.07765074
4486.00   4.77185440   0.07821473
4487.00   4.83218670   0.07854937
4488.00   4.77266836   0.07812177
4489.00   4.77239943   0.07802681
4490.00   4.80824471   0.07814241
4491.00   4.76525068   0.07799938
4492.00   4.77880812   0.07814768
4493.00   4.76180840   0.07805016
4494.00   4.74231100   0.07804336
4495.00   4.80418825   0.07843548
4496.00   4.79072809   0.07822459
4497.00   4.73076344   0.07783181
4498.00   4.70239878   0.07774733
4499.00   4.69638252   0.07771413
4500.00   4.70488644   0.07767548
4501.00   4.69171238   0.07738991
4502.00   4.63921547   0.07701711
4503.00   4.61970425   0.07705892
4504.00   4.56507492   0.07674386
4505.00   4.56863451   0.07673520
4506.00   4.52628899   0.07648121
4507.00   4.54777861   0.07647564
4508.00   4.53386974   0.07629044
4509.00   4.47663879   0.07584536
4510.00   4.55398417   0.07629672
4511.00   4.55229187   0.07618412
4512.00   4.46672535   0.07577994
4513.00   4.45298338   0.07565157
4514.00   4.46589947   0.07582018
4515.00   4.43113232   0.07546823
4516.00   4.47190380   0.07557778
4517.00   4.43704700   0.07504196
4518.00   4.47754288   0.07536557
4519.00   4.43524218   0.07516517
4520.00   4.42003822   0.07497229
4521.00   4.39595509   0.07465713
4522.00   4.34677410   0.07430249
4523.00   4.33713055   0.07432004
4524.00   4.31033468   0.07410108
4525.00   4.32033491   0.07398668
4526.00   4.38883114   0.07416803
4527.00   4.44727373   0.07456791
4528.00   4.41574097   0.07445948
4529.00   4.31082106   0.07369297
4530.00   4.28272486   0.07338157
4531.00   4.26574612   0.07331579
4532.00   4.23341417   0.07317546
4533.00   4.21696234   0.07304387
4534.00   4.20534658   0.07291569
4535.00   4.24381733   0.07321864
4536.00   4.25288057   0.07336038
4537.00   4.21236897   0.07305648
4538.00   4.21651793   0.07300474
4539.00   4.20725203   0.07294041
4540.00   4.17411327   0.07282668
4541.00   4.20206881   0.07286254
4542.00   4.18120813   0.07261103
4543.00   4.12996578   0.07245699
4544.00   4.21051693   0.07287056
4545.00   4.24252892   0.07287107
4546.00   4.16323614   0.07229990
4547.00   4.11018610   0.07181291
4548.00   4.06515265   0.07136857
4549.00   4.14315796   0.07171732
4550.00   4.12914085   0.07156073
4551.00   3.99671841   0.07080410
4552.00   4.09910631   0.07144069
4553.00   4.10237217   0.07131325
4554.00   4.07295227   0.07122714
4555.00   4.07849455   0.07129691
4556.00   4.04241037   0.07101618
4557.00   4.04446697   0.07087258
4558.00   4.04707718   0.07072335
4559.00   4.10449123   0.07106442
4560.00   4.09939384   0.07108213
4561.00   3.99825740   0.07037741
4562.00   3.96764207   0.06992377
4563.00   4.01508188   0.07015901
4564.00   4.08936310   0.07064370
4565.00   4.08272409   0.07055096
4566.00   4.09094858   0.07045815
4567.00   4.05825520   0.07025151
4568.00   4.02665854   0.07003342
4569.00   4.07079840   0.07024916
4570.00   4.04705048   0.07014252
4571.00   4.01204681   0.06990802
4572.00   4.04862165   0.06989763
4573.00   4.01567602   0.06985508
4574.00   3.97053957   0.06974617
4575.00   3.98994732   0.06952433
4576.00   4.01837301   0.06956125
4577.00   3.98069715   0.06925302
4578.00   3.88135719   0.06847527
4579.00   3.92768216   0.06879053
4580.00   4.02424717   0.06935272
4581.00   4.01396370   0.06898228
4582.00   4.00767040   0.06862601
4583.00   4.02678156   0.06881177
4584.00   4.06273413   0.06903452
4585.00   4.07347155   0.06923744
4586.00   4.01661301   0.06878575
4587.00   4.02409220   0.06896609
4588.00   4.09603262   0.06939249
4589.00   4.02296305   0.06896929
4590.00   4.04513311   0.06901905
4591.00   4.10554600   0.06927011
4592.00   4.08321762   0.06894976
4593.00   4.04663181   0.06883930
4594.00   4.00767136   0.06861791
4595.00   4.05854797   0.06875141
4596.00   4.06737185   0.06874523
4597.00   3.99728274   0.06836256
4598.00   4.00333309   0.06822039
4599.00   3.98770642   0.06798623
4600.00   3.98939562   0.06808492
4601.00   4.01171875   0.06814138
4602.00   3.98383212   0.06787363
4603.00   4.02385330   0.06802738
4604.00   4.05724907   0.06809701
4605.00   4.02004766   0.06784620
4606.00   3.95384789   0.06757943
4607.00   3.96063042   0.06764982
4608.00   4.02402973   0.06806485
4609.00   4.03532124   0.06831354
4610.00   4.03572130   0.06825008
4611.00   3.98199129   0.06764974
4612.00   3.89936328   0.06712824
4613.00   3.94888258   0.06743688
4614.00   3.97844315   0.06746675
4615.00   3.93273783   0.06705949
4616.00   3.94001818   0.06703486
4617.00   3.94155216   0.06693839
4618.00   3.98087144   0.06702701
4619.00   3.99676776   0.06726617
4620.00   3.95497108   0.06709307
4621.00   4.00895691   0.06711049
4622.00   4.03115654   0.06702939
4623.00   4.03358173   0.06721825
4624.00   3.91098666   0.06666898
4625.00   3.81023121   0.06595192
4626.00   3.86333990   0.06598508
4627.00   3.91753745   0.06630222
4628.00   3.90854049   0.06632600
4629.00   3.87717271   0.06599748
4630.00   3.87297583   0.06576057
4631.00   3.79915261   0.06546096
4632.00   3.86189461   0.06580229
4633.00   3.84993362   0.06567676
4634.00   3.92563629   0.06596249
4635.00   3.97775888   0.06620748
4636.00   3.83755851   0.06541312
4637.00   3.77928066   0.06496789
4638.00   3.75222111   0.06475414
4639.00   3.74365687   0.06487559
4640.00   3.78037810   0.06500432
4641.00   3.81578541   0.06507447
4642.00   3.85605025   0.06534687
4643.00   3.82487774   0.06510247
4644.00   3.79843378   0.06481282
4645.00   3.80757308   0.06481485
4646.00   3.82275939   0.06493501
4647.00   3.84195852   0.06506261
4648.00   3.78254175   0.06474088
4649.00   3.79061508   0.06490509
4650.00   3.85224867   0.06539714
4651.00   3.87623382   0.06550469
4652.00   3.92431569   0.06569456
4653.00   3.95155334   0.06578317
4654.00   3.91031671   0.06552518
4655.00   3.87234235   0.06527208
4656.00   3.83547664   0.06509470
4657.00   3.85451055   0.06542888
4658.00   3.92552686   0.06587045
4659.00   3.89916635   0.06575968
4660.00   3.87248755   0.06575710
4661.00   3.86187458   0.06568176
4662.00   3.92223668   0.06604432
4663.00   3.96050358   0.06626990
4664.00   3.95265508   0.06601533
4665.00   3.95992732   0.06594453
4666.00   3.93335485   0.06581216
4667.00   3.94473171   0.06613117
4668.00   3.90855145   0.06600945
4669.00   3.94418907   0.06622024
4670.00   3.95801425   0.06638321
4671.00   3.88562107   0.06610753
4672.00   3.93853235   0.06610295
4673.00   3.94052124   0.06589433
4674.00   3.91510391   0.06579264
4675.00   3.94804955   0.06605105
4676.00   3.99941468   0.06610796
4677.00   4.03658533   0.06613386
4678.00   3.98773146   0.06574667
4679.00   3.97885132   0.06554191
4680.00   4.02547789   0.06583670
4681.00   4.05102205   0.06604660
4682.00   4.03799438   0.06591333
4683.00   4.04489183   0.06589708
4684.00   4.03778315   0.06577380
4685.00   3.98912573   0.06540240
4686.00   4.01865721   0.06556578
4687.00   4.05207443   0.06573670
4688.00   4.08662462   0.06583533
4689.00   4.08833599   0.06573739
4690.00   4.06468153   0.06551833
4691.00   4.12478924   0.06587679
4692.00   4.13315439   0.06596300
4693.00   4.07933044   0.06570169
4694.00   4.11132479   0.06601911
4695.00   4.11987686   0.06602766
4696.00   4.09025478   0.06556759
4697.00   4.07890320   0.06534303
4698.00   4.06998110   0.06531013
4699.00   4.14083719   0.06566928
4700.00   4.16391993   0.06572957
4701.00   4.14990711   0.06556600
4702.00   4.16984797   0.06565214
4703.00   4.19891977   0.06585881
4704.00   4.20701218   0.06594566
4705.00   4.19967890   0.06604273
4706.00   4.15661335   0.06608430
4707.00   4.12581539   0.06575228
4708.00   4.20188475   0.06613636
4709.00   4.22470474   0.06628077
4710.00   4.27658558   0.06649237
4711.00   4.22486162   0.06642019
4712.00   4.19681644   0.06617115
4713.00   4.22198391   0.06623945
4714.00   4.26127529   0.06656700
4715.00   4.28139114   0.06652093
4716.00   4.25416660   0.06633808
4717.00   4.22931099   0.06612206
4718.00   4.25031042   0.06613073
4719.00   4.31716824   0.06658548
4720.00   4.34299421   0.06657816
4721.00   4.29429436   0.06631389
4722.00   4.27198172   0.06636976
4723.00   4.28825569   0.06633694
4724.00   4.24927330   0.06601406
4725.00   4.29391336   0.06633509
4726.00   4.26235294   0.06652298
4727.00   4.25350571   0.06696048
4728.00   4.30742121   0.06735592
4729.00   4.33186483   0.06738336
4730.00   4.32839108   0.06739819
4731.00   4.35400915   0.06758314
4732.00   4.33982944   0.06743742
4733.00   4.30191994   0.06726031
4734.00   4.35665655   0.06772861
4735.00   4.38507509   0.06798392
4736.00   4.35655117   0.06779452
4737.00   4.38280392   0.06803218
4738.00   4.34128475   0.06819812
4739.00   4.31612206   0.06817322
4740.00   4.36187458   0.06841262
4741.00   4.30702639   0.06864092
4742.00   4.38036489   0.06913172
4743.00   4.44063473   0.06917582
4744.00   4.38037872   0.06857646
4745.00   4.33649635   0.06771553
4746.00   4.37791061   0.06734649
4747.00   4.31051636   0.06682061
4748.00   4.31511641   0.06664369
4749.00   4.41996908   0.06699101
4750.00   4.43033457   0.06706653
4751.00   4.40527010   0.06700412
4752.00   4.37040806   0.06679234
4753.00   4.40065098   0.06695059
4754.00   4.42379570   0.06703624
4755.00   4.43061304   0.06671387
4756.00   4.40672827   0.06651985
4757.00   4.38143873   0.06626431
4758.00   4.38997555   0.06609607
4759.00   4.41441488   0.06617412
4760.00   4.38526058   0.06609809
4761.00   4.42225647   0.06602342
4762.00   4.47961569   0.06630792
4763.00   4.38056612   0.06584692
4764.00   4.36853933   0.06557474
4765.00   4.37449360   0.06549069
4766.00   4.35934544   0.06536356
4767.00   4.40122747   0.06555606
4768.00   4.36709213   0.06532678
4769.00   4.33868361   0.06517036
4770.00   4.35580111   0.06525007
4771.00   4.34789085   0.06516594
4772.00   4.34190464   0.06511892
4773.00   4.33970594   0.06510410
4774.00   4.32696247   0.06506770
4775.00   4.33801413   0.06521691
4776.00   4.34096670   0.06539992
4777.00   4.30804777   0.06541471
4778.00   4.33319426   0.06564807
4779.00   4.34491253   0.06574892
4780.00   4.31708336   0.06545860
4781.00   4.32341051   0.06516089
4782.00   4.31422949   0.06489088
4783.00   4.27921581   0.06458664
4784.00   4.25825214   0.06447665
4785.00   4.28221416   0.06460028
4786.00   4.28405666   0.06436672
4787.00   4.28763723   0.06426077
4788.00   4.30380917   0.06442992
4789.00   4.27129173   0.06430179
4790.00   4.22860861   0.06399609
4791.00   4.22276735   0.06427208
4792.00   4.20365715   0.06401520
4793.00   4.18929243   0.06378482
4794.00   4.21482515   0.06373250
4795.00   4.18188620   0.06342404
4796.00   4.16399574   0.06326454
4797.00   4.12140608   0.06313048
4798.00   4.07552719   0.06288139
4799.00   4.08298397   0.06273242
4800.00   4.09941387   0.06289524
4801.00   4.13865757   0.06316539
4802.00   4.17701817   0.06326474
4803.00   4.17724180   0.06336642
4804.00   4.15475941   0.06327996
4805.00   4.08084154   0.06274708
4806.00   4.05606461   0.06253514
4807.00   4.06503582   0.06249609
4808.00   4.07761860   0.06250525
4809.00   4.13867331   0.06288777
4810.00   4.12781048   0.06282166
4811.00   4.04391479   0.06240637
4812.00   4.00734377   0.06232957
4813.00   4.03116465   0.06234161
4814.00   4.06462860   0.06239344
4815.00   4.03499460   0.06229758
4816.00   4.01780844   0.06223247
4817.00   4.05895662   0.06255334
4818.00   4.02988291   0.06255259
4819.00   3.98102379   0.06230612
4820.00   4.02942228   0.06239471
4821.00   4.02751970   0.06239486
4822.00   4.00549793   0.06234937
4823.00   4.07945824   0.06283148
4824.00   4.11183929   0.06294274
4825.00   4.00387955   0.06221176
4826.00   3.99640727   0.06229988
4827.00   3.98479295   0.06252442
4828.00   3.98389626   0.06234121
4829.00   3.96378613   0.06210325
4830.00   3.95332122   0.06213530
4831.00   3.97188592   0.06234387
4832.00   3.96897244   0.06226829
4833.00   3.92861009   0.06189083
4834.00   3.97513175   0.06214306
4835.00   3.98033619   0.06220109
4836.00   3.95137644   0.06206235
4837.00   3.97432280   0.06229032
4838.00   3.95959640   0.06232531
4839.00   3.96084619   0.06241058
4840.00   3.96624637   0.06237053
4841.00   3.97951818   0.06226977
4842.00   3.95616841   0.06215388
4843.00   3.95451045   0.06199764
4844.00   3.94635224   0.06168792
4845.00   3.90723515   0.06164412
4846.00   3.87080622   0.06157154
4847.00   3.90726829   0.06165987
4848.00   3.94489431   0.06176731
4849.00   3.91397190   0.06162880
4850.00   3.87943077   0.06141110
4851.00   3.90574574   0.06140191
4852.00   3.91373158   0.06148357
4853.00   3.90648985   0.06150977
4854.00   3.90282011   0.06127623
4855.00   3.90542746   0.06113343
4856.00   3.94618821   0.06132811
4857.00   3.93310666   0.06114687
4858.00   3.92229247   0.06104815
4859.00   3.92098546   0.06105698
4860.00   3.87438774   0.06074689
4861.00   3.85959244   0.06068630
4862.00   3.92049861   0.06105252
4863.00   3.92198420   0.06110403
4864.00   3.89684343   0.06110482
4865.00   3.94380760   0.06137604
4866.00   3.90922999   0.06109945
4867.00   3.89558554   0.06107946
4868.00   3.92885733   0.06128471
4869.00   3.86795354   0.06084496
4870.00   3.83875799   0.06078074
4871.00   3.80835700   0.06055237
4872.00   3.84116411   0.06061764
4873.00   3.90824699   0.06091061
4874.00   3.90015364   0.06077233
4875.00   3.81258082   0.06045572
4876.00   3.82086110   0.06067746
4877.00   3.81325650   0.06064983
4878.00   3.83894324   0.06079330
4879.00   3.86550832   0.06087862
4880.00   3.86387634   0.06086491
4881.00   3.89701152   0.06106740
4882.00   3.87309361   0.06088011
4883.00   3.81756258   0.06044601
4884.00   3.79703784   0.06017493
4885.00   3.80209732   0.06012288
4886.00   3.80307341   0.06014489
4887.00   3.77975631   0.05991187
4888.00   3.75532269   0.05959913
4889.00   3.75269151   0.05957546
4890.00   3.75775385   0.05964073
4891.00   3.75234103   0.05970023
4892.00   3.75642705   0.05987031
4893.00   3.79308081   0.06014840
4894.00   3.82098031   0.06030247
4895.00   3.78964496   0.06006507
4896.00   3.77038765   0.05994182
4897.00   3.72075129   0.05967603
4898.00   3.62976480   0.05915327
4899.00   3.72032022   0.05959188
4900.00   3.73656797   0.05942279
4901.00   3.68522930   0.05913941
4902.00   3.75452971   0.05956858
4903.00   3.69404268   0.05923907
4904.00   3.71406889   0.05926695
4905.00   3.72531700   0.05942393
4906.00   3.71943974   0.05944075
4907.00   3.67982292   0.05929998
4908.00   3.72723436   0.05963063
4909.00   3.73176742   0.05953103
4910.00   3.65680671   0.05901451
4911.00   3.65952063   0.05900893
4912.00   3.68066192   0.05909955
4913.00   3.65624714   0.05897185
4914.00   3.62380576   0.05881528
4915.00   3.69034219   0.05924278
4916.00   3.72642088   0.05939227
4917.00   3.64933586   0.05876475
4918.00   3.66365266   0.05879293
4919.00   3.62207532   0.05849684
4920.00   3.63291693   0.05841525
4921.00   3.62993550   0.05829909
4922.00   3.65109015   0.05863498
4923.00   3.62189245   0.05855866
4924.00   3.58501697   0.05829165
4925.00   3.61066413   0.05833339
4926.00   3.62407255   0.05833733
4927.00   3.60723472   0.05824630
4928.00   3.61170340   0.05822817
4929.00   3.63233089   0.05829666
4930.00   3.62722826   0.05831386
4931.00   3.61280203   0.05823965
4932.00   3.62261581   0.05830137
4933.00   3.63060784   0.05839911
4934.00   3.61662388   0.05829897
4935.00   3.60578609   0.05817786
4936.00   3.61120963   0.05810198
4937.00   3.61105490   0.05802583
4938.00   3.60458708   0.05805345
4939.00   3.60550833   0.05801043
4940.00   3.62162828   0.05802247
4941.00   3.63541937   0.05821630
4942.00   3.58220172   0.05800553
4943.00   3.57175875   0.05791185
4944.00   3.58883023   0.05799552
4945.00   3.53576779   0.05761615
4946.00   3.51784492   0.05753314
4947.00   3.52863598   0.05756634
4948.00   3.54388738   0.05767960
4949.00   3.58224511   0.05798027
4950.00   3.61969233   0.05798731
4951.00   3.62176490   0.05809462
4952.00   3.58365512   0.05809781
4953.00   3.55854344   0.05783412
4954.00   3.54574275   0.05761634
4955.00   3.56952596   0.05772323
4956.00   3.58666015   0.05779038
4957.00   3.54905915   0.05758531
4958.00   3.53853512   0.05749534
4959.00   3.52646637   0.05744133
4960.00   3.50682759   0.05749397
4961.00   3.55119562   0.05772844
4962.00   3.54384589   0.05767927
4963.00   3.54547930   0.05782120
4964.00   3.56106615   0.05787061
4965.00   3.48696518   0.05732268
4966.00   3.48178959   0.05732470
4967.00   3.53460836   0.05771131
4968.00   3.61388421   0.05814872
4969.00   3.58395672   0.05806208
4970.00   3.49928880   0.05763960
4971.00   3.50770926   0.05776453
4972.00   3.53708982   0.05818840
4973.00   3.57792521   0.05867539
4974.00   3.58387446   0.05894519
4975.00   3.57996130   0.05906512
4976.00   3.60219073   0.05931606
4977.00   3.52271008   0.05918150
4978.00   3.52551866   0.05946818
4979.00   3.60560822   0.06012243
4980.00   3.55507421   0.06005057
4981.00   3.48250318   0.05982041
4982.00   3.51384258   0.06014441
4983.00   3.58248258   0.06042077
4984.00   3.56801200   0.06011410
4985.00   3.54751706   0.05995397
4986.00   3.54554677   0.05990362
4987.00   3.54882145   0.05959343
4988.00   3.50508237   0.05892359
4989.00   3.47011042   0.05860145
4990.00   3.48464513   0.05859265
4991.00   3.49864340   0.05852918
4992.00   3.57108355   0.05868461
4993.00   3.55884171   0.05841038
4994.00   3.50743794   0.05789416
4995.00   3.47155070   0.05758658
4996.00   3.49270487   0.05748412
4997.00   3.49711490   0.05736353
4998.00   3.50861979   0.05720925
4999.00   3.51926184   0.05706888
5000.00   3.50204110   0.05706082
5001.00   3.48725533   0.05700905
5002.00   3.49457264   0.05683168
5003.00   3.49794006   0.05666161
5004.00   3.48089814   0.05645124
5005.00   3.51509976   0.05650025
5006.00   3.54140091   0.05667020
5007.00   3.48479271   0.05664499
5008.00   3.44519138   0.05676928
5009.00   3.45633173   0.05704010
5010.00   3.44976807   0.05708714
5011.00   3.45373511   0.05697792
5012.00   3.45118189   0.05662321
5013.00   3.40573335   0.05615661
5014.00   3.39707017   0.05598950
5015.00   3.44642162   0.05612289
5016.00   3.47672820   0.05633248
5017.00   3.44798660   0.05624454
5018.00   3.38009477   0.05588432
5019.00   3.40131998   0.05601166
5020.00   3.47685313   0.05643367
5021.00   3.43593860   0.05620854
5022.00   3.38494539   0.05583025
5023.00   3.41592741   0.05584772
5024.00   3.37000799   0.05557992
5025.00   3.35158181   0.05541544
5026.00   3.44560361   0.05576600
5027.00   3.40071964   0.05568063
5028.00   3.37281346   0.05571195
5029.00   3.39115381   0.05583927
5030.00   3.36454582   0.05561822
5031.00   3.40650725   0.05607864
5032.00   3.34196901   0.05565591
5033.00   3.37326217   0.05557221
5034.00   3.33963943   0.05528526
5035.00   3.31640816   0.05511660
5036.00   3.29868603   0.05494015
5037.00   3.29389262   0.05473713
5038.00   3.35069609   0.05515113
5039.00   3.35921264   0.05514843
5040.00   3.34999919   0.05494893
5041.00   3.35210323   0.05495877
5042.00   3.31589031   0.05485554
5043.00   3.30908775   0.05494168
5044.00   3.34857893   0.05520618
5045.00   3.33000398   0.05512230
5046.00   3.29101562   0.05494669
5047.00   3.35153913   0.05528707
5048.00   3.42789912   0.05566853
5049.00   3.37050772   0.05529739
5050.00   3.29856086   0.05498145
5051.00   3.31112719   0.05515924
5052.00   3.35161328   0.05540450
5053.00   3.35602474   0.05535232
5054.00   3.29744864   0.05491767
5055.00   3.27711177   0.05482827
5056.00   3.29805875   0.05499342
5057.00   3.27825356   0.05495650
5058.00   3.24741435   0.05476141
5059.00   3.25234938   0.05468456
5060.00   3.26565576   0.05479727
5061.00   3.29406834   0.05515511
5062.00   3.31787109   0.05543921
5063.00   3.30183363   0.05543866
5064.00   3.28030014   0.05545059
5065.00   3.29804015   0.05556840
5066.00   3.29378366   0.05553266
5067.00   3.24510932   0.05539578
5068.00   3.26595592   0.05566133
5069.00   3.23562169   0.05556021
5070.00   3.29834676   0.05589759
5071.00   3.32397199   0.05578911
5072.00   3.23572111   0.05513114
5073.00   3.27945971   0.05537045
5074.00   3.27356672   0.05535255
5075.00   3.27513433   0.05526927
5076.00   3.27049422   0.05534189
5077.00   3.26378250   0.05506589
5078.00   3.28871274   0.05543206
5079.00   3.27727461   0.05585210
5080.00   3.22509217   0.05608289
5081.00   3.20679402   0.05677217
5082.00   3.20603585   0.05742191
5083.00   3.19525242   0.05780156
5084.00   3.22447729   0.05829336
5085.00   3.26528382   0.05845609
5086.00   3.23752189   0.05809077
5087.00   3.18300509   0.05753900
5088.00   3.16456556   0.05695571
5089.00   3.17030668   0.05628722
5090.00   3.17421150   0.05572871
5091.00   3.18372154   0.05537849
5092.00   3.21539354   0.05527738
5093.00   3.21379733   0.05515851
5094.00   3.17960191   0.05486368
5095.00   3.16589904   0.05475165
5096.00   3.15328741   0.05475473
5097.00   3.15404344   0.05497539
5098.00   3.20031071   0.05548127
5099.00   3.26709318   0.05585856
5100.00   3.21742105   0.05555214
5101.00   3.15777206   0.05493513
5102.00   3.20537782   0.05492887
5103.00   3.18080139   0.05472540
5104.00   3.13287401   0.05425696
5105.00   3.17303896   0.05437996
5106.00   3.16799879   0.05431388
5107.00   3.20367265   0.05446301
5108.00   3.18487716   0.05434597
5109.00   3.17062950   0.05431240
5110.00   3.16128445   0.05432494
5111.00   3.19879770   0.05447818
5112.00   3.16691184   0.05436353
5113.00   3.12836599   0.05421087
5114.00   3.11753941   0.05422986
5115.00   3.19514894   0.05463662
5116.00   3.21587634   0.05474694
5117.00   3.14512372   0.05445748
5118.00   3.14515162   0.05432762
5119.00   3.17992759   0.05433103
5120.00   3.17796493   0.05422193
5121.00   3.19251108   0.05414148
5122.00   3.20406222   0.05412266
5123.00   3.16125369   0.05397644
5124.00   3.13260603   0.05387516
5125.00   3.17397785   0.05402097
5126.00   3.18732119   0.05411249
5127.00   3.11049247   0.05372716
5128.00   3.09512401   0.05359948
5129.00   3.16604471   0.05391462
5130.00   3.21872401   0.05431190
5131.00   3.17837429   0.05408313
5132.00   3.12999940   0.05372536
5133.00   3.11671352   0.05379128
5134.00   3.07751584   0.05365302
5135.00   3.10872746   0.05384175
5136.00   3.12229657   0.05380881
5137.00   3.10919785   0.05372039
5138.00   3.12094378   0.05387190
5139.00   3.07370639   0.05364678
5140.00   3.07026219   0.05360972
5141.00   3.14467406   0.05401441
5142.00   3.15486193   0.05409542
5143.00   3.11151576   0.05385792
5144.00   3.06901050   0.05363620
5145.00   3.05801129   0.05358849
5146.00   3.03566289   0.05360835
5147.00   3.10028172   0.05412353
5148.00   3.10884142   0.05419552
5149.00   3.07612157   0.05423251
5150.00   3.12525582   0.05462044
5151.00   3.11965251   0.05472236
5152.00   3.09258723   0.05483802
5153.00   3.07657170   0.05473735
5154.00   3.05177069   0.05475804
5155.00   3.13974810   0.05517774
5156.00   3.14400291   0.05503175
5157.00   3.12683296   0.05487216
5158.00   3.13347483   0.05495079
5159.00   3.14311695   0.05507833
5160.00   3.16639686   0.05504531
5161.00   3.13047934   0.05466324
5162.00   3.13765287   0.05466707
5163.00   3.12881517   0.05444666
5164.00   3.12493944   0.05425077
5165.00   3.12929511   0.05414999
5166.00   3.09983492   0.05390527
5167.00   3.12865424   0.05395943
5168.00   3.12746954   0.05386748
5169.00   3.05281615   0.05344894
5170.00   3.07521677   0.05362077
5171.00   3.15394068   0.05409425
5172.00   3.13476992   0.05400084
5173.00   3.10634160   0.05393174
5174.00   3.13011694   0.05422259
5175.00   3.12863207   0.05438227
5176.00   3.12707376   0.05453951
5177.00   3.13508868   0.05463026
5178.00   3.14553285   0.05458387
5179.00   3.16030979   0.05475775
5180.00   3.15100360   0.05481704
5181.00   3.14627361   0.05461690
5182.00   3.14428639   0.05462996
5183.00   3.14841676   0.05465562
5184.00   3.12329030   0.05457233
5185.00   3.10060573   0.05455128
5186.00   3.09610081   0.05463271
5187.00   3.08804250   0.05466409
5188.00   3.09898353   0.05502372
5189.00   3.12278152   0.05508204
5190.00   3.17303228   0.05511773
5191.00   3.17694163   0.05525706
5192.00   3.10750914   0.05494393
5193.00   3.13661265   0.05528939
5194.00   3.15179706   0.05569995
5195.00   3.12603164   0.05570741
5196.00   3.15779519   0.05595763
5197.00   3.17601991   0.05629593
5198.00   3.19565892   0.05672314
5199.00   3.20454621   0.05680282
5200.00   3.20400023   0.05673710
5201.00   3.18273830   0.05661454
5202.00   3.17025828   0.05645999
5203.00   3.14670396   0.05622946
5204.00   3.14921713   0.05625404
5205.00   3.15493035   0.05618853
5206.00   3.13033319   0.05592733
5207.00   3.15240622   0.05612119
5208.00   3.20358920   0.05654627
5209.00   3.20758533   0.05669554
5210.00   3.15930033   0.05662125
5211.00   3.12173772   0.05650232
5212.00   3.15370703   0.05658318
5213.00   3.19105148   0.05674866
5214.00   3.17187071   0.05666366
5215.00   3.16816354   0.05663227
5216.00   3.17401052   0.05674298
5217.00   3.12814999   0.05660180
5218.00   3.11722970   0.05659456
5219.00   3.15027285   0.05690708
5220.00   3.15455198   0.05702312
5221.00   3.16127443   0.05708567
5222.00   3.17951202   0.05704273
5223.00   3.15610933   0.05675310
5224.00   3.17450047   0.05704642
5225.00   3.16846871   0.05702891
5226.00   3.20073771   0.05709158
5227.00   3.16985631   0.05679634
5228.00   3.16485405   0.05704783
5229.00   3.20138121   0.05741513
5230.00   3.22149658   0.05749751
5231.00   3.20211005   0.05754442
5232.00   3.15394664   0.05720937
5233.00   3.20371222   0.05743975
5234.00   3.24894452   0.05790789
5235.00   3.17559171   0.05747722
5236.00   3.19983983   0.05777056
5237.00   3.18011498   0.05773691
5238.00   3.20408130   0.05797241
5239.00   3.21210957   0.05808241
5240.00   3.19370985   0.05794613
5241.00   3.20273662   0.05816504
5242.00   3.22714853   0.05834266
5243.00   3.21385360   0.05831958
5244.00   3.18060827   0.05818323
5245.00   3.16829395   0.05813983
5246.00   3.21911931   0.05846852
5247.00   3.25587177   0.05871082
5248.00   3.24274802   0.05871719
5249.00   3.25833774   0.05883662
5250.00   3.24804354   0.05878185
5251.00   3.19644094   0.05860815
5252.00   3.18330193   0.05857777
5253.00   3.19789481   0.05871247
5254.00   3.23193479   0.05914288
5255.00   3.25140643   0.05932231
5256.00   3.25216794   0.05945834
5257.00   3.25285769   0.05989369
5258.00   3.24238086   0.05981013
5259.00   3.29628754   0.05990674
5260.00   3.23816967   0.05957763
5261.00   3.21762347   0.05943935
5262.00   3.22934699   0.05958859
5263.00   3.25060248   0.05955405
5264.00   3.27187943   0.05954195
5265.00   3.26675773   0.05960640
5266.00   3.23848987   0.05937833
5267.00   3.22058535   0.05924081
5268.00   3.28038216   0.05958905
5269.00   3.32143831   0.05966727
5270.00   3.26912594   0.05972370
5271.00   3.21371818   0.05961460
5272.00   3.17478275   0.05937276
5273.00   3.24495149   0.05971919
5274.00   3.20225358   0.05949164
5275.00   3.18144560   0.05952390
5276.00   3.15647793   0.05947250
5277.00   3.18087411   0.05955995
5278.00   3.19281292   0.05971623
5279.00   3.12935090   0.05942555
5280.00   3.13844728   0.05941951
5281.00   3.18494964   0.05977145
5282.00   3.17889333   0.05992013
5283.00   3.20589256   0.06015275
5284.00   3.19766521   0.06021793
5285.00   3.12396812   0.05999246
5286.00   3.16275835   0.06035449
5287.00   3.20424891   0.06060667
5288.00   3.18113136   0.06025450
5289.00   3.16599274   0.06006369
5290.00   3.16309547   0.06036935
5291.00   3.18111920   0.06067295
5292.00   3.20384312   0.06071159
5293.00   3.17133665   0.06047022
5294.00   3.12312269   0.06012867
5295.00   3.16004276   0.06033782
5296.00   3.15544415   0.06038021
5297.00   3.14317489   0.06025957
5298.00   3.15405893   0.06039219
5299.00   3.14230514   0.06054282
5300.00   3.12627816   0.06044241
5301.00   3.14183259   0.06051930
5302.00   3.17063189   0.06092561
5303.00   3.13878536   0.06082063
5304.00   3.09250760   0.06052152
5305.00   3.11461973   0.06069966
5306.00   3.13225460   0.06072688
5307.00   3.08706450   0.06077045
5308.00   3.12738609   0.06121685
5309.00   3.13519263   0.06108589
5310.00   3.09771395   0.06125137
5311.00   3.04391217   0.06108004
5312.00   3.11791945   0.06137658
5313.00   3.11840725   0.06148769
5314.00   3.05474114   0.06105231
5315.00   3.06028652   0.06092015
5316.00   3.10572791   0.06132206
5317.00   3.09871531   0.06143763
5318.00   3.03254175   0.06110945
5319.00   3.04378390   0.06129342
5320.00   3.05971861   0.06153188
5321.00   2.99302506   0.06128860
5322.00   3.03122854   0.06150453
5323.00   3.01924515   0.06137522
5324.00   2.96686053   0.06112233
5325.00   3.01752377   0.06151100
5326.00   3.03956032   0.06169892
5327.00   3.02582455   0.06166583
5328.00   3.03179693   0.06186345
5329.00   3.03077555   0.06213714
5330.00   3.07381654   0.06265317
5331.00   3.08929420   0.06293150
5332.00   3.02472138   0.06265192
5333.00   3.02567410   0.06274475
5334.00   3.04922652   0.06300505
5335.00   3.01265955   0.06292745
5336.00   3.04072523   0.06325282
5337.00   3.09303045   0.06375919
5338.00   3.07952690   0.06391583
5339.00   3.03366899   0.06372746
5340.00   3.03952265   0.06406940
5341.00   3.04310012   0.06432154
5342.00   3.04137301   0.06448472
5343.00   2.97914577   0.06431413
5344.00   3.00348282   0.06445853
5345.00   3.04233766   0.06467208
5346.00   3.03976321   0.06483634
5347.00   3.07111859   0.06550317
5348.00   3.08018208   0.06609208
5349.00   3.06446338   0.06621134
5350.00   3.06987929   0.06627265
5351.00   3.07949018   0.06629132
5352.00   3.11817932   0.06657713
5353.00   3.12090921   0.06698149
5354.00   3.10900784   0.06714620
5355.00   3.08484507   0.06732399
5356.00   3.07599545   0.06741005
5357.00   2.98171687   0.06691435
5358.00   2.94933248   0.06655318
5359.00   3.00391436   0.06674157
5360.00   3.04259849   0.06669051
5361.00   3.01075459   0.06635869
5362.00   3.00384307   0.06642756
5363.00   3.00041890   0.06660258
5364.00   2.99979949   0.06649162
5365.00   2.99649835   0.06622572
5366.00   2.97596121   0.06630501
5367.00   3.03083968   0.06694189
5368.00   3.06076789   0.06709621
5369.00   3.01009560   0.06672260
5370.00   2.97567058   0.06660771
5371.00   2.94008589   0.06670354
5372.00   2.98133612   0.06729394
5373.00   3.02640128   0.06771697
5374.00   2.95759034   0.06762339
5375.00   2.95832348   0.06782572
5376.00   2.95902586   0.06772164
5377.00   2.93249512   0.06774727
5378.00   2.97721100   0.06809606
5379.00   2.96446681   0.06775904
5380.00   2.92364764   0.06742358
5381.00   2.91641092   0.06750820
5382.00   2.89318752   0.06745002
5383.00   2.88333559   0.06744655
5384.00   2.89701366   0.06759966
5385.00   2.89470363   0.06768750
5386.00   2.86452317   0.06761232
5387.00   2.85632157   0.06772958
5388.00   2.86964893   0.06784333
5389.00   2.81058121   0.06768475
5390.00   2.81241870   0.06803039
5391.00   2.88713002   0.06871314
5392.00   2.85656500   0.06876265
5393.00   2.91823220   0.06955272
5394.00   2.90640783   0.06935377
5395.00   2.80881143   0.06820726
5396.00   2.84696841   0.06846777
5397.00   2.87146783   0.06904233
5398.00   2.83123994   0.06904715
5399.00   2.85784912   0.06934720
5400.00   2.86415839   0.06953055
5401.00   2.88844609   0.07002762
5402.00   2.86418605   0.06996219
5403.00   2.85261059   0.07006187
5404.00   2.88115358   0.07065389
5405.00   2.88092446   0.07092648
5406.00   2.89043212   0.07147554
5407.00   2.92907929   0.07246764
5408.00   2.90584207   0.07281010
5409.00   2.92906141   0.07329511
5410.00   3.01005125   0.07426436
5411.00   2.96189928   0.07445636
5412.00   2.88704205   0.07430986
5413.00   2.92659020   0.07484717
5414.00   2.99307537   0.07580578
5415.00   2.97760177   0.07619052
5416.00   2.93089366   0.07593936
5417.00   2.92836404   0.07573683
5418.00   2.89847970   0.07538631
5419.00   2.88051414   0.07518681
5420.00   2.90823865   0.07500526
5421.00   2.92274094   0.07486431
5422.00   2.91762280   0.07454865
5423.00   2.80014443   0.07362190
5424.00   2.73990965   0.07321972
5425.00   2.76336670   0.07299585
5426.00   2.79820371   0.07320218
5427.00   2.76266670   0.07282194
5428.00   2.68709636   0.07230020
5429.00   2.72640109   0.07278842
5430.00   2.78221726   0.07318365
5431.00   2.75056076   0.07305852
5432.00   2.73173571   0.07279873
5433.00   2.69996643   0.07240926
5434.00   2.76917911   0.07310430
5435.00   2.75357318   0.07355298
5436.00   2.73776054   0.07362294
5437.00   2.72421765   0.07366082
5438.00   2.82764387   0.07450277
5439.00   2.85194659   0.07468543
5440.00   2.81317353   0.07450294
5441.00   2.76146507   0.07435888
5442.00   2.74947619   0.07444451
5443.00   2.81859255   0.07485362
5444.00   2.83012271   0.07486457
5445.00   2.75849652   0.07453324
5446.00   2.75926042   0.07454390
5447.00   2.76296449   0.07442121
5448.00   2.68208003   0.07392215
5449.00   2.72817349   0.07433309
5450.00   2.82313609   0.07511368
5451.00   2.77534437   0.07471842
5452.00   2.77464724   0.07437126
5453.00   2.79351449   0.07437214
5454.00   2.75045919   0.07383730
5455.00   2.78046679   0.07405099
5456.00   2.75282955   0.07550009
5457.00   2.76022148   0.07965171
5458.00   2.84220481   0.08491436
5459.00   2.74961925   0.08801875
5460.00   2.75170135   0.09009177
5461.00   2.85312128   0.09086736
5462.00   2.76431847   0.08847375
5463.00   2.70734882   0.08535802
5464.00   2.70236588   0.08329334
5465.00   2.72502470   0.08189965
5466.00   2.68559265   0.07983670
5467.00   2.71951771   0.07806440
5468.00   2.71068811   0.07705811
5469.00   2.75489187   0.07640487
5470.00   2.64095855   0.07457795
5471.00   2.67359829   0.07379539
5472.00   2.76950288   0.07381244
5473.00   2.67062163   0.07237855
5474.00   2.65003133   0.07186476
5475.00   2.77196503   0.07281920
5476.00   2.76957130   0.07261525
5477.00   2.70997787   0.07193380
5478.00   2.70954323   0.07210583
5479.00   2.69814181   0.07247920
5480.00   2.68296099   0.07262626
5481.00   2.61910558   0.07259643
5482.00   2.70334625   0.07358053
5483.00   2.69148564   0.07358623
5484.00   2.70477343   0.07391784
5485.00   2.75850201   0.07436337
5486.00   2.70245433   0.07373177
5487.00   2.59904599   0.07252453
5488.00   2.60823178   0.07229964
5489.00   2.72771215   0.07323246
5490.00   2.74456525   0.07329217
5491.00   2.65775275   0.07253329
5492.00   2.64163733   0.07220831
5493.00   2.70238781   0.07238115
5494.00   2.73437929   0.07274614
5495.00   2.72342706   0.07301598
5496.00   2.73130250   0.07330596
5497.00   2.70290494   0.07313696
5498.00   2.64272094   0.07257314
5499.00   2.70079947   0.07322013
5500.00   2.66483331   0.07301790
5501.00   2.66345429   0.07284801
5502.00   2.65841413   0.07322668
5503.00   2.62734365   0.07304875
5504.00   2.70312119   0.07342918
5505.00   2.72285628   0.07365746
5506.00   2.69781804   0.07380655
5507.00   2.67193365   0.07373052
5508.00   2.59938836   0.07281524
5509.00   2.61279845   0.07268266
5510.00   2.60545921   0.07288928
5511.00   2.59459805   0.07331640
5512.00   2.68291950   0.07466810
5513.00   2.73303986   0.07532606
5514.00   2.58718991   0.07426520
5515.00   2.62775111   0.07465675
5516.00   2.65706897   0.07529285
5517.00   2.69641876   0.07579876
5518.00   2.67811990   0.07584457
5519.00   2.58131719   0.07580324
5520.00   2.55729008   0.07580157
5521.00   2.66652298   0.07667110
5522.00   2.70263481   0.07744093
5523.00   2.57908511   0.07661813
5524.00   2.51990962   0.07613369
5525.00   2.51687074   0.07627903
5526.00   2.49749470   0.07657886
5527.00   2.52546501   0.07700638
5528.00   2.55535841   0.07724848
5529.00   2.50645638   0.07711603
5530.00   2.51244569   0.07743590
5531.00   2.58520579   0.07823347
5532.00   2.60887527   0.07889924
5533.00   2.59650064   0.07940240
5534.00   2.57358217   0.07949813
5535.00   2.59356642   0.07997201
5536.00   2.58231211   0.08012488
5537.00   2.56037021   0.08063634
5538.00   2.57991338   0.08157457
5539.00   2.59153438   0.08212277
5540.00   2.58870697   0.08301999
5541.00   2.56426764   0.08325753
5542.00   2.57221222   0.08373108
5543.00   2.58269739   0.05369744
5544.00   2.54225874   0.05309904
5545.00   2.51355052   0.05258341
5546.00   2.51024199   0.05224904
5547.00   2.54710460   0.05223476
5548.00   2.52520084   0.05197041
5549.00   2.49110031   0.05151107
5550.00   2.52647781   0.05142623
5551.00   2.54689264   0.05135074
5552.00   2.53994226   0.05116449
5553.00   2.52696085   0.05088719
5554.00   2.53419566   0.05069538
5555.00   2.52478480   0.05053298
5556.00   2.55279636   0.05047734
5557.00   2.54340649   0.05021919
5558.00   2.52520919   0.04998729
5559.00   2.48405170   0.04970654
5560.00   2.48000050   0.04960250
5561.00   2.52183580   0.04960951
5562.00   2.53007913   0.04955945
5563.00   2.50561142   0.04927182
5564.00   2.51350951   0.04915815
5565.00   2.50790262   0.04928263
5566.00   2.49725962   0.04958816
5567.00   2.52334905   0.05011134
5568.00   2.52845669   0.05044351
5569.00   2.56000757   0.05126900
5570.00   2.55184698   0.05203153
5571.00   2.53925133   0.05296274
5572.00   2.48281193   0.05361786
5573.00   2.48274374   0.05442667
5574.00   2.49518943   0.05587837
5575.00   2.46261406   0.05809508
5576.00   2.45761585   0.06070454
5577.00   2.50005412   0.06330460
%5578.00   2.32232618   0.06580362
%5579.00   2.03194427   0.06531782
%5580.00   2.03025579   0.06124843
%5581.00   2.26973176   0.05509967
5582.00   2.50739670   0.05008019
5583.00   2.50121689   0.05195901
5584.00   2.51794767   0.05176997
5585.00   2.53252268   0.05143489
5586.00   2.49560213   0.05090796
5587.00   2.50658655   0.05013975
5588.00   2.52908039   0.04855607
5589.00   2.50755453   0.04766888
5590.00   2.49646783   0.04774059
5591.00   2.48042679   0.04771422
5592.00   2.50730181   0.04621315
5593.00   2.51318574   0.04559337
5594.00   2.53607416   0.04545422
5595.00   2.53980899   0.04545389
5596.00   2.45507193   0.04482219
5597.00   2.43935847   0.04461593
5598.00   2.48832297   0.04474699
5599.00   2.49841118   0.04471607
5600.00   2.49199009   0.04462216
5601.00   2.47098947   0.04453473
5602.00   2.48932886   0.04459942
5603.00   2.50213766   0.04459064
5604.00   2.45254421   0.04421048
5605.00   2.43158150   0.04405054
5606.00   2.44353533   0.04406056
5607.00   2.42373419   0.04402427
5608.00   2.37471437   0.04375785
5609.00   2.42013884   0.04380410
5610.00   2.44209170   0.04377742
5611.00   2.44008422   0.04369628
5612.00   2.41781211   0.04359890
5613.00   2.40188909   0.04352181
5614.00   2.40577269   0.04343668
5615.00   2.42213678   0.04336521
5616.00   2.42524076   0.04338349
5617.00   2.41919208   0.04337541
5618.00   2.42014074   0.04343567
5619.00   2.46024275   0.04346243
5620.00   2.44645214   0.04328554
5621.00   2.45342517   0.04337960
5622.00   2.44383478   0.04340565
5623.00   2.43143702   0.04322406
5624.00   2.41904449   0.04303952
5625.00   2.39839315   0.04276278
5626.00   2.40829611   0.04286455
5627.00   2.39010096   0.04280438
5628.00   2.38178468   0.04265566
5629.00   2.39134884   0.04278503
5630.00   2.39507437   0.04284334
5631.00   2.40292764   0.04284101
5632.00   2.45024800   0.04290970
5633.00   2.41968822   0.04276909
5634.00   2.39271116   0.04260576
5635.00   2.37753987   0.04247525
5636.00   2.34849405   0.04236571
5637.00   2.34172797   0.04226984
5638.00   2.40585423   0.04253335
5639.00   2.40098047   0.04259244
5640.00   2.35884094   0.04236221
5641.00   2.35596275   0.04234472
5642.00   2.38429832   0.04265113
5643.00   2.38247204   0.04259685
5644.00   2.35610533   0.04232756
5645.00   2.34483051   0.04221215
5646.00   2.35436773   0.04239467
5647.00   2.33823633   0.04238788
5648.00   2.31612062   0.04223868
5649.00   2.33925867   0.04223526
5650.00   2.38130808   0.04246548
5651.00   2.35979128   0.04244122
5652.00   2.31623650   0.04236965
5653.00   2.30416870   0.04223246
5654.00   2.32086658   0.04225535
5655.00   2.32359457   0.04225049
5656.00   2.32389903   0.04231830
5657.00   2.37189651   0.04271401
5658.00   2.39542198   0.04290975
5659.00   2.34247041   0.04264832
5660.00   2.27528620   0.04232707
5661.00   2.31230044   0.04257356
5662.00   2.31261396   0.04265279
5663.00   2.28690577   0.04261100
5664.00   2.28105450   0.04273795
5665.00   2.29756927   0.04305226
5666.00   2.29859400   0.04331317
5667.00   2.28743362   0.04349937
5668.00   2.31987786   0.04393912
5669.00   2.33905125   0.04437689
5670.00   2.31496191   0.04477331
5671.00   2.31322813   0.04519778
5672.00   2.34075356   0.04553472
5673.00   2.31451297   0.04540073
5674.00   2.27558184   0.04517969
5675.00   2.30715847   0.04532380
5676.00   2.33208680   0.04516082
5677.00   2.31503320   0.04497164
5678.00   2.29535651   0.04512506
5679.00   2.28221560   0.04550628
5680.00   2.26194525   0.04605967
5681.00   2.24528074   0.04681170
5682.00   2.27847147   0.04780783
5683.00   2.31422734   0.04886866
5684.00   2.27455521   0.04963291
5685.00   2.22515583   0.05019340
5686.00   2.25565028   0.05085878
5687.00   2.27823734   0.05134194
5688.00   2.22526908   0.05138472
5689.00   2.20078087   0.05123246
5690.00   2.21422505   0.05086360
5691.00   2.20088506   0.04994651
5692.00   2.18649364   0.04872484
5693.00   2.25315714   0.04796865
5694.00   2.28488636   0.04739568
5695.00   2.23686409   0.04644524
5696.00   2.24632955   0.04582949
5697.00   2.27072334   0.04549458
5698.00   2.25337744   0.04523215
5699.00   2.20647907   0.04482263
5700.00   2.23173475   0.04495537
5701.00   2.24978566   0.04487963
5702.00   2.26917887   0.04463909
5703.00   2.23978138   0.04442278
5704.00   2.24371481   0.04434713
5705.00   2.24860668   0.04415871
5706.00   2.27324772   0.04408607
5707.00   2.29955530   0.04423388
5708.00   2.26653171   0.04425304
5709.00   2.29523873   0.04448405
5710.00   2.29264593   0.04466269
5711.00   2.24574471   0.04465200
5712.00   2.24112034   0.04467832
5713.00   2.25896931   0.04460490
5714.00   2.26951885   0.04441827
5715.00   2.25101042   0.04396967
5716.00   2.22988653   0.04374508
5717.00   2.19054985   0.04348646
5718.00   2.19501686   0.04341299
5719.00   2.24030232   0.04355518
5720.00   2.25868750   0.04367973
5721.00   2.26581287   0.04381260
5722.00   2.25702620   0.04362123
5723.00   2.23627138   0.04344841
5724.00   2.21623993   0.04336987
5725.00   2.19799280   0.04329270
5726.00   2.21749997   0.04332887
5727.00   2.23800230   0.04332994
5728.00   2.20074654   0.04301552
5729.00   2.17388391   0.04277726
5730.00   2.19638109   0.04270871
5731.00   2.24528503   0.04294056
5732.00   2.25072241   0.04296842
5733.00   2.20347238   0.04270069
5734.00   2.20201588   0.04278480
5735.00   2.24410963   0.04316943
5736.00   2.27949286   0.04332603
5737.00   2.27233434   0.04314856
5738.00   2.24378109   0.04295531
5739.00   2.24230289   0.04298344
5740.00   2.24623060   0.04318274
5741.00   2.26167488   0.04323828
5742.00   2.28403401   0.04329265
5743.00   2.26915455   0.04319282
5744.00   2.23610330   0.04307599
5745.00   2.24615693   0.04307751
5746.00   2.20891905   0.04297974
5747.00   2.21404076   0.04307653
5748.00   2.22802758   0.04313593
5749.00   2.25404882   0.04324313
5750.00   2.24503613   0.04328651
5751.00   2.23001766   0.04323694
5752.00   2.23392487   0.04322072
5753.00   2.24355459   0.04323711
5754.00   2.20148945   0.04293454
5755.00   2.22255993   0.04303605
5756.00   2.25921249   0.04325355
5757.00   2.27673817   0.04355110
5758.00   2.25813770   0.04362720
5759.00   2.26297259   0.04371364
5760.00   2.26063013   0.04375051
5761.00   2.24910831   0.04383986
5762.00   2.24959612   0.04413944
5763.00   2.23120928   0.04435137
5764.00   2.22744274   0.04458886
5765.00   2.23030567   0.04497281
5766.00   2.23831296   0.04567312
5767.00   2.23235559   0.04652047
5768.00   2.26817608   0.04786787
5769.00   2.23542738   0.04842074
5770.00   2.26064253   0.04867636
5771.00   2.31153631   0.04858136
5772.00   2.31196070   0.04772417
5773.00   2.27894735   0.04644771
5774.00   2.27683520   0.04520184
5775.00   2.29696083   0.04442838
5776.00   2.31521749   0.04429859
5777.00   2.31002259   0.04403310
5778.00   2.30306220   0.04390025
5779.00   2.26661754   0.04377928
5780.00   2.27495670   0.04387385
5781.00   2.29114962   0.04389609
5782.00   2.31826639   0.04397004
5783.00   2.31154585   0.04399668
5784.00   2.27882719   0.04409420
5785.00   2.28733873   0.04452489
5786.00   2.36773109   0.04512626
%5787.00   2.21272898   0.04658422
%5788.00   1.98446226   0.04771785
%5789.00   1.94669378   0.04821068
%5790.00   2.18090653   0.04798938
5791.00   2.32680082   0.04846618
5792.00   2.31101274   0.04804958
5793.00   2.30714869   0.04729342
5794.00   2.33278489   0.04650081
5795.00   2.34125710   0.04551354
5796.00   2.36016655   0.04475016
5797.00   2.33092761   0.04414589
5798.00   2.29063153   0.04367928
5799.00   2.27203965   0.04342241
5800.00   2.26962519   0.04358174
5801.00   2.29802847   0.04399484
5802.00   2.31508780   0.04392618
5803.00   2.34213805   0.04387251
5804.00   2.33990097   0.04373352
5805.00   2.34318161   0.04376975
5806.00   2.34038305   0.04377141
5807.00   2.33582592   0.04361922
5808.00   2.31420517   0.04335183
5809.00   2.32480931   0.04339761
5810.00   2.37538433   0.04352935
5811.00   2.39484549   0.04358865
5812.00   2.39942694   0.04359239
5813.00   2.37014151   0.04341860
5814.00   2.32293510   0.04304491
5815.00   2.32814932   0.04308958
5816.00   2.33173609   0.04301808
5817.00   2.36002350   0.04318287
5818.00   2.36925936   0.04326382
5819.00   2.36825514   0.04324279
5820.00   2.34133911   0.04303946
5821.00   2.30535793   0.04291715
5822.00   2.31123400   0.04297901
5823.00   2.32442379   0.04297421
5824.00   2.31910753   0.04287485
5825.00   2.31595802   0.04288595
5826.00   2.32249975   0.04282954
5827.00   2.31997681   0.04279865
5828.00   2.33294129   0.04285437
5829.00   2.32467151   0.04277983
5830.00   2.30677748   0.04277167
5831.00   2.34781075   0.04328119
5832.00   2.37560558   0.04340655
5833.00   2.36025620   0.04322357
5834.00   2.32048512   0.04300033
5835.00   2.31569099   0.04290584
5836.00   2.28402615   0.04275756
5837.00   2.26007199   0.04264893
5838.00   2.26453733   0.04255541
5839.00   2.29485703   0.04262482
5840.00   2.30054092   0.04275595
5841.00   2.30508685   0.04287411
5842.00   2.29880667   0.04271823
5843.00   2.27879095   0.04250432
5844.00   2.25630999   0.04240527
5845.00   2.25994134   0.04247629
5846.00   2.27829814   0.04250582
5847.00   2.29708719   0.04255375
5848.00   2.25883770   0.04236079
5849.00   2.25340891   0.04233558
5850.00   2.26208830   0.04245253
5851.00   2.28918409   0.04264751
5852.00   2.27393198   0.04246566
5853.00   2.27041245   0.04236462
5854.00   2.25360203   0.04232438
5855.00   2.26481485   0.04249925
5856.00   2.24783778   0.04234288
5857.00   2.21925926   0.04211401
5858.00   2.23499155   0.04218981
5859.00   2.25186586   0.04221472
5860.00   2.25330281   0.04216422
5861.00   2.23462033   0.04200993
5862.00   2.25529671   0.04218902
5863.00   2.26614094   0.04233766
5864.00   2.25456405   0.04241807
5865.00   2.25098181   0.04239419
5866.00   2.23585320   0.04235563
5867.00   2.24472332   0.04250409
5868.00   2.21170020   0.04241019
5869.00   2.18606687   0.04222014
5870.00   2.20869398   0.04233275
5871.00   2.19525862   0.04222414
5872.00   2.22307038   0.04222109
5873.00   2.26489162   0.04217856
5874.00   2.28167725   0.04209584
5875.00   2.26075602   0.04175142
5876.00   2.25605750   0.04161514
5877.00   2.25719976   0.04146016
5878.00   2.23550892   0.04119897
5879.00   2.24687648   0.04109306
5880.00   2.28370261   0.04111082
5881.00   2.29727840   0.04108271
5882.00   2.25887799   0.04111922
5883.00   2.21749687   0.04154404
5884.00   2.22839594   0.04276551
5885.00   2.21659613   0.04445834
5886.00   2.26704097   0.04766773
5887.00   2.25756741   0.05238212
5888.00   2.22277355   0.05841908
5889.00   2.19423962   0.06480928
5890.00   2.06803370   0.06839030
5891.00   2.04371333   0.06888497
5892.00   2.06898308   0.06739357
5893.00   2.10032940   0.06563683
5894.00   2.15926218   0.06503353
5895.00   2.19863153   0.06653310
5896.00   2.19855499   0.06769046
5897.00   2.21166182   0.06718482
5898.00   2.18112016   0.06347331
5899.00   2.21559310   0.05721959
5900.00   2.18989849   0.04937524
5901.00   2.19238877   0.04328420
5902.00   2.23054695   0.04064090
5903.00   2.27003241   0.04068689
5904.00   2.27472234   0.04075049
5905.00   2.28489923   0.04091322
5906.00   2.28435993   0.04100925
5907.00   2.26113534   0.04086544
5908.00   2.27888227   0.04079636
5909.00   2.29727030   0.04082522
5910.00   2.29304671   0.04074613
5911.00   2.27072811   0.04060671
5912.00   2.28285742   0.04079290
5913.00   2.28826237   0.04093419
5914.00   2.26226187   0.04085328
5915.00   2.24070001   0.04079556
5916.00   2.26222730   0.04084561
5917.00   2.29938221   0.04080389
5918.00   2.30524826   0.04064868
5919.00   2.30119419   0.04052039
5920.00   2.28329253   0.04033660
5921.00   2.26456261   0.04011468
5922.00   2.26332235   0.04012741
5923.00   2.26460218   0.04019028
5924.00   2.23416209   0.04006582
5925.00   2.22622299   0.04006524
5926.00   2.25994802   0.04038927
5927.00   2.25765467   0.04045647
5928.00   2.25506830   0.04049569
5929.00   2.28372574   0.04063035
5930.00   2.31693316   0.04079838
5931.00   2.30877924   0.04074659
5932.00   2.28105402   0.04059567
5933.00   2.29126024   0.04057992
5934.00   2.28622484   0.04042700
5935.00   2.27700472   0.04032722
5936.00   2.30143166   0.04030283
5937.00   2.32607603   0.04028891
5938.00   2.32818198   0.04012953
5939.00   2.36432505   0.04003715
5940.00   2.33513594   0.03965279
5941.00   2.30926847   0.03920352
5942.00   2.25769854   0.03879217
5943.00   2.21779418   0.03850324
5944.00   2.17778015   0.03820384
5945.00   2.21405983   0.03825426
5946.00   2.23679018   0.03844324
5947.00   2.21551180   0.03834980
5948.00   2.24230433   0.03838068
5949.00   2.24551678   0.03833646
5950.00   2.22713327   0.03832170
5951.00   2.26339197   0.03868513
5952.00   2.27120638   0.03883781
5953.00   2.29810953   0.03907016
5954.00   2.33379126   0.03928374
5955.00   2.30604267   0.03913923
5956.00   2.30907822   0.03884571
5957.00   2.35348368   0.03877819
5958.00   2.33680129   0.03851004
5959.00   2.28552294   0.03827498
5960.00   2.30028677   0.03838680
5961.00   2.31415558   0.03839299
5962.00   2.32216692   0.03842160
5963.00   2.31802750   0.03844602
5964.00   2.32963467   0.03844195
5965.00   2.34884501   0.03844282
5966.00   2.35488892   0.03830782
5967.00   2.34009123   0.03813020
5968.00   2.30606842   0.03797702
5969.00   2.32118034   0.03795432
5970.00   2.31254053   0.03786152
5971.00   2.31915474   0.03799815
5972.00   2.30102491   0.03798303
5973.00   2.31711650   0.03807282
5974.00   2.31412935   0.03802966
5975.00   2.34359550   0.03819571
5976.00   2.32900524   0.03802679
5977.00   2.30638123   0.03775885
5978.00   2.29082966   0.03763651
5979.00   2.28400469   0.03751095
5980.00   2.30878448   0.03760276
5981.00   2.31074905   0.03769583
5982.00   2.30073357   0.03760504
5983.00   2.30477262   0.03756658
5984.00   2.29681063   0.03741789
5985.00   2.25824738   0.03722177
5986.00   2.31334925   0.03775277
%5987.00   2.39362526   0.03930814
5988.00   2.32011127   0.03983558
5989.00   2.27873230   0.03979061
5990.00   2.32009816   0.03957943
5991.00   2.32165670   0.03895044
5992.00   2.30316830   0.03760330
5993.00   2.31022263   0.03722315
5994.00   2.28983259   0.03737048
5995.00   2.27472925   0.03722071
5996.00   2.29336691   0.03719095
5997.00   2.29130697   0.03704840
5998.00   2.30406308   0.03709877
5999.00   2.31398344   0.03713264
6000.00   2.30329347   0.03710245
6001.00   2.26783395   0.03685403
6002.00   2.26738858   0.03678846
6003.00   2.29447174   0.03691081
6004.00   2.30009794   0.03693763
6005.00   2.27519941   0.03679630
6006.00   2.28300118   0.03678177
6007.00   2.29371858   0.03678956
6008.00   2.29794979   0.03676479
6009.00   2.29278588   0.03672914
6010.00   2.29125929   0.03668981
6011.00   2.29056883   0.03663572
6012.00   2.29411650   0.03656671
6013.00   2.27447915   0.03641978
6014.00   2.25127578   0.03625206
6015.00   2.26197624   0.03625222
6016.00   2.27723598   0.03622520
6017.00   2.27711105   0.03619094
6018.00   2.26591492   0.03618603
6019.00   2.24378657   0.03618063
6020.00   2.22408438   0.03605863
6021.00   2.24001050   0.03608561
6022.00   2.25846577   0.03616454
6023.00   2.24850368   0.03609683
6024.00   2.23523426   0.03604403
6025.00   2.24431992   0.03612161
6026.00   2.26470852   0.03619948
6027.00   2.25565457   0.03610075
6028.00   2.23168564   0.03598715
6029.00   2.24511743   0.03594318
6030.00   2.26219893   0.03586964
6031.00   2.24394560   0.03580058
6032.00   2.23758268   0.03584614
6033.00   2.25067329   0.03591920
6034.00   2.25020146   0.03585926
6035.00   2.21554565   0.03568233
6036.00   2.20372534   0.03562713
6037.00   2.21511745   0.03560643
6038.00   2.25385141   0.03567164
6039.00   2.27225161   0.03560320
6040.00   2.23982024   0.03549761
6041.00   2.19061041   0.03542250
6042.00   2.19086599   0.03552382
6043.00   2.21628737   0.03566962
6044.00   2.21366978   0.03560736
6045.00   2.21533394   0.03555822
6046.00   2.21119022   0.03553612
6047.00   2.20875359   0.03557109
6048.00   2.20645237   0.03547908
6049.00   2.22015667   0.03553768
6050.00   2.19511223   0.03545273
6051.00   2.18633175   0.03547493
6052.00   2.22680831   0.03569341
6053.00   2.22728395   0.03563383
6054.00   2.19770598   0.03548387
6055.00   2.16370869   0.03530436
6056.00   2.16554141   0.03533555
6057.00   2.19143629   0.03546631
6058.00   2.19205499   0.03541934
6059.00   2.16470480   0.03517469
6060.00   2.16521811   0.03518531
6061.00   2.15378618   0.03514238
6062.00   2.17777205   0.03527827
6063.00   2.19382763   0.03539477
6064.00   2.20629692   0.03543848
6065.00   2.19518852   0.03526359
6066.00   2.19048452   0.03525918
6067.00   2.17268944   0.03515173
6068.00   2.15675998   0.03512190
6069.00   2.17071724   0.03519472
6070.00   2.20430994   0.03523289
6071.00   2.20962524   0.03514013
6072.00   2.16272879   0.03504827
6073.00   2.13903666   0.03499339
6074.00   2.13528514   0.03489247
6075.00   2.14067101   0.03492549
6076.00   2.15454459   0.03504324
6077.00   2.12670708   0.03497674
6078.00   2.13505721   0.03497610
6079.00   2.17960477   0.03504512
6080.00   2.20770931   0.03515419
6081.00   2.20690870   0.03527300
6082.00   2.16057205   0.03504767
6083.00   2.15331078   0.03504930
6084.00   2.15472364   0.03499902
6085.00   2.11124110   0.03480567
6086.00   2.11352205   0.03482638
6087.00   2.12178087   0.03487735
6088.00   2.11669326   0.03487296
6089.00   2.10873032   0.03496135
6090.00   2.08273959   0.03487335
6091.00   2.08969212   0.03483132
6092.00   2.11117482   0.03497317
6093.00   2.09784842   0.03505463
6094.00   2.09080267   0.03528547
6095.00   2.10406923   0.03599170
6096.00   2.11375189   0.03599832
6097.00   2.10623479   0.03585982
6098.00   2.12092495   0.03565854
6099.00   2.16132784   0.03543889
6100.00   2.15755200   0.03535688
6101.00   2.13507748   0.03537013
6102.00   2.12250853   0.03543288
6103.00   2.12864423   0.03550522
6104.00   2.10614157   0.03552440
6105.00   2.10107183   0.03568652
6106.00   2.12719536   0.03596328
6107.00   2.16520524   0.03630150
6108.00   2.11874199   0.03634248
6109.00   2.10370922   0.03663219
6110.00   2.08335590   0.03699074
6111.00   2.09848595   0.03749371
6112.00   2.12845182   0.03797633
6113.00   2.14231586   0.03823102
6114.00   2.11597252   0.03825606
6115.00   2.08099222   0.03811621
6116.00   2.04916382   0.03774111
6117.00   2.09311867   0.03734436
6118.00   2.09656572   0.03680042
6119.00   2.08791566   0.03647425
6120.00   2.09999514   0.03625176
6121.00   2.11077547   0.03601861
6122.00   2.10512877   0.03572726
6123.00   2.07190442   0.03546662
6124.00   2.05649877   0.03535173
6125.00   2.06209707   0.03519609
6126.00   2.05247307   0.03500992
6127.00   2.04015136   0.03496576
6128.00   2.07876372   0.03510275
6129.00   2.07106876   0.03498309
6130.00   2.06278396   0.03493522
6131.00   2.07297826   0.03487564
6132.00   2.07139826   0.03480723
6133.00   2.09700775   0.03484026
6134.00   2.08846688   0.03474580
6135.00   2.03815222   0.03447119
6136.00   2.04150176   0.03444457
6137.00   2.09356642   0.03469367
6138.00   2.08812428   0.03468582
6139.00   2.08147001   0.03466925
6140.00   2.09129000   0.03469839
6141.00   2.10479426   0.03480071
6142.00   2.08428788   0.03482652
6143.00   2.06702471   0.03487367
6144.00   2.04990125   0.03477297
6145.00   2.05158114   0.03472237
6146.00   2.06559968   0.03469400
6147.00   2.07359219   0.03468511
6148.00   2.06074643   0.03461659
6149.00   2.06108189   0.03452301
6150.00   2.07652330   0.03447115
6151.00   2.06827641   0.03447717
6152.00   2.06788301   0.03467751
6153.00   2.07072783   0.03504519
6154.00   2.05526257   0.03527540
6155.00   2.04594946   0.03525946
6156.00   2.06989002   0.03537368
6157.00   2.06910181   0.03525022
6158.00   2.05633211   0.03508486
6159.00   2.07227278   0.03516433
6160.00   2.07748938   0.03557565
6161.00   2.05754662   0.03584936
6162.00   2.05854249   0.03587005
6163.00   2.06342554   0.03562083
6164.00   2.07470775   0.03526459
6165.00   2.05304527   0.03461093
6166.00   2.05074167   0.03406199
6167.00   2.06881857   0.03369714
6168.00   2.07468843   0.03357710
6169.00   2.07145548   0.03357732
6170.00   2.05806828   0.03357808
6171.00   2.04882431   0.03349695
6172.00   2.06484270   0.03355843
6173.00   2.05306530   0.03341131
6174.00   2.06566429   0.03338566
6175.00   2.06894183   0.03331329
6176.00   2.07840157   0.03333046
6177.00   2.05339050   0.03317622
6178.00   2.05704975   0.03316455
6179.00   2.05564451   0.03310814
6180.00   2.05320120   0.03305915
6181.00   2.04393792   0.03302827
6182.00   2.06453753   0.03319316
6183.00   2.07932663   0.03330155
6184.00   2.04798746   0.03320518
6185.00   2.04917336   0.03317537
6186.00   2.06219196   0.03323385
6187.00   2.06009102   0.03317686
6188.00   2.03565168   0.03296746
6189.00   2.02415848   0.03287026
6190.00   1.99369907   0.03274702
6191.00   1.99774098   0.03272756
6192.00   2.02905989   0.03286281
6193.00   2.04418635   0.03293794
6194.00   2.02937317   0.03287646
6195.00   2.03437281   0.03290394
6196.00   2.03736782   0.03295663
6197.00   2.02483845   0.03286349
6198.00   2.00212884   0.03266564
6199.00   2.01215863   0.03266501
6200.00   2.02493286   0.03278461
6201.00   2.03204632   0.03286768
6202.00   2.04380703   0.03288578
6203.00   2.03226137   0.03281676
6204.00   2.01752615   0.03277653
6205.00   2.01841879   0.03278138
6206.00   2.00938439   0.03270186
6207.00   2.00109577   0.03265163
6208.00   2.02408695   0.03289965
6209.00   2.02765465   0.03305009
6210.00   2.01534867   0.03314175
6211.00   1.99928880   0.03315816
6212.00   2.01282263   0.03325090
6213.00   2.01730800   0.03314918
6214.00   2.01732206   0.03291722
6215.00   2.00987077   0.03254199
6216.00   1.99593616   0.03236999
6217.00   2.00207663   0.03239756
6218.00   1.99769652   0.03234091
6219.00   1.99809909   0.03226286
6220.00   1.98297834   0.03224179
6221.00   1.98724020   0.03232077
6222.00   1.98188567   0.03232416
6223.00   1.98991799   0.03237703
6224.00   1.98318636   0.03231092
6225.00   1.97965145   0.03219106
6226.00   1.98948789   0.03213211
6227.00   1.99416876   0.03211830
6228.00   1.99071777   0.03204576
6229.00   2.00164318   0.03209729
6230.00   2.02922249   0.03225125
6231.00   2.00910687   0.03216409
6232.00   1.97524071   0.03211202
6233.00   1.95732164   0.03232973
6234.00   1.93698561   0.03255233
6235.00   1.93061173   0.03263675
6236.00   1.95693159   0.03286468
6237.00   1.99271560   0.03316015
6238.00   1.99687719   0.03322514
6239.00   1.98155475   0.03318417
6240.00   1.96782136   0.03314953
6241.00   1.97389483   0.03313284
6242.00   1.99321342   0.03306122
6243.00   1.98233986   0.03268494
6244.00   1.95121419   0.03219400
6245.00   1.96275926   0.03207889
6246.00   1.97925472   0.03217436
6247.00   1.97891498   0.03218434
6248.00   1.97093666   0.03213409
6249.00   1.96995258   0.03232227
6250.00   1.96692276   0.03229918
6251.00   1.96370244   0.03223933
6252.00   1.96458399   0.03220386
6253.00   1.96972275   0.03221624
6254.00   1.97239661   0.03210808
6255.00   1.95626402   0.03206941
6256.00   1.94613123   0.03233632
6257.00   1.95187509   0.03276072
6258.00   1.95484734   0.03306578
6259.00   1.95966733   0.03321738
6260.00   1.95814431   0.03313988
6261.00   1.95297384   0.03282741
6262.00   1.93861198   0.03242934
6263.00   1.94136596   0.03223415
6264.00   1.91972971   0.03199845
6265.00   1.89130020   0.03179310
6266.00   1.88764560   0.03177392
6267.00   1.91815066   0.03189793
6268.00   1.91434324   0.03185588
6269.00   1.89429069   0.03169283
6270.00   1.90008783   0.03161098
6271.00   1.91143429   0.03153533
6272.00   1.90013170   0.03148972
6273.00   1.90166664   0.03159953
6274.00   1.90071988   0.03159277
6275.00   1.90747106   0.03159076
6276.00   1.91028285   0.03160367
6277.00   1.91707993   0.03185134
6278.00   1.92224455   0.03228641
6279.00   1.94798791   0.03284350
6280.00   1.96810436   0.03314056
6281.00   1.94582868   0.03297536
6282.00   1.91619277   0.03262226
6283.00   1.90436363   0.03231959
6284.00   1.92883241   0.03229637
6285.00   1.93747354   0.03235898
6286.00   1.92124498   0.03227478
6287.00   1.91297030   0.03214651
6288.00   1.90727830   0.03198672
6289.00   1.88658857   0.03179622
6290.00   1.88634896   0.03167180
6291.00   1.90119553   0.03155824
6292.00   1.90372801   0.03145749
6293.00   1.90897083   0.03153246
6294.00   1.92753220   0.03177893
6295.00   1.93739080   0.03198485
6296.00   1.91996992   0.03233697
6297.00   1.90259695   0.03401929
6298.00   1.90474510   0.03735013
6299.00   1.90485919   0.04150257
6300.00   1.90415895   0.04414444
6301.00   1.90388751   0.04460736
6302.00   1.90812552   0.04335390
6303.00   1.90834045   0.04073430
6304.00   1.90761673   0.03683248
6305.00   1.88667738   0.03394743
6306.00   1.89991295   0.03311528
6307.00   1.89465761   0.03314508
6308.00   1.85499287   0.03277677
6309.00   1.85073578   0.03239440
6310.00   1.89872766   0.03215256
6311.00   1.91887712   0.03190520
6312.00   1.89156151   0.03159365
6313.00   1.86136723   0.03138395
6314.00   1.85175681   0.03117581
6315.00   1.85792112   0.03107128
6316.00   1.85137439   0.03099374
6317.00   1.84856510   0.03095653
6318.00   1.86805201   0.03100051
6319.00   1.87256598   0.03104587
6320.00   1.87179744   0.03106299
6321.00   1.85945809   0.03098665
6322.00   1.85446811   0.03092141
6323.00   1.84856224   0.03089607
6324.00   1.88044786   0.03102861
6325.00   1.90125346   0.03105175
6326.00   1.89991117   0.03096754
6327.00   1.88665760   0.03093966
6328.00   1.84981883   0.03091985
6329.00   1.83494544   0.03102762
6330.00   1.85540247   0.03130122
6331.00   1.87003994   0.03150140
6332.00   1.85195899   0.03134054
6333.00   1.82982445   0.03100696
6334.00   1.83746886   0.03089214
6335.00   1.84945869   0.03085957
6336.00   1.84248006   0.03071016
6337.00   1.82146037   0.03042083
6338.00   1.82066286   0.03031533
6339.00   1.82170200   0.03030482
6340.00   1.80469048   0.03027962
6341.00   1.79938531   0.03028914
6342.00   1.82132292   0.03041615
6343.00   1.84739316   0.03056226
6344.00   1.84229350   0.03054030
6345.00   1.82880902   0.03044472
6346.00   1.82510996   0.03045858
6347.00   1.86502433   0.03074182
6348.00   1.86584949   0.03075025
6349.00   1.86215079   0.03064657
6350.00   1.84537768   0.03048282
6351.00   1.81920838   0.03033438
6352.00   1.81376565   0.03027285
6353.00   1.84410119   0.03039447
6354.00   1.88810337   0.03065072
6355.00   1.87085366   0.03072017
6356.00   1.85337543   0.03076198
6357.00   1.83954751   0.03078736
6358.00   1.83854914   0.03064397
6359.00   1.82456565   0.03037985
6360.00   1.80709696   0.03037037
6361.00   1.80313230   0.03113548
6362.00   1.79754400   0.03260338
6363.00   1.77709365   0.03389686
6364.00   1.76620924   0.03450114
6365.00   1.79834294   0.03452226
6366.00   1.79589701   0.03365333
6367.00   1.81367874   0.03223503
6368.00   1.82789004   0.03084379
6369.00   1.81650889   0.03007603
6370.00   1.78800845   0.02979672
6371.00   1.77892303   0.02970478
6372.00   1.78342462   0.02975120
6373.00   1.78467309   0.02979089
6374.00   1.76901889   0.02970477
6375.00   1.79076290   0.02973851
6376.00   1.79896879   0.02982493
6377.00   1.79406762   0.03006006
6378.00   1.77651405   0.03009940
6379.00   1.77800822   0.03011514
6380.00   1.81699383   0.03022397
6381.00   1.85184669   0.03043238
6382.00   1.84901941   0.03043091
6383.00   1.83138943   0.03022727
6384.00   1.79999530   0.03006525
6385.00   1.78276706   0.02998720
6386.00   1.80243850   0.03008963
6387.00   1.79426968   0.02999622
6388.00   1.80740666   0.03006837
6389.00   1.79666948   0.02990896
6390.00   1.81363630   0.02987628
6391.00   1.83402205   0.02994663
6392.00   1.81724215   0.02984582
6393.00   1.81046987   0.02979149
6394.00   1.79859340   0.02972430
6395.00   1.79312444   0.02968375
6396.00   1.80822885   0.02975885
6397.00   1.81851506   0.02983230
6398.00   1.81440043   0.02988282
6399.00   1.80581641   0.02989642
6400.00   1.79951632   0.03003760
6401.00   1.78477991   0.03019317
6402.00   1.75837946   0.03023448
6403.00   1.78193474   0.03033877
6404.00   1.78109384   0.03022399
6405.00   1.77506948   0.03003863
6406.00   1.76118159   0.02968306
6407.00   1.77940893   0.02960331
6408.00   1.77656150   0.02951615
6409.00   1.77777243   0.02954780
6410.00   1.79284358   0.02965517
6411.00   1.79364920   0.02975027
6412.00   1.76653314   0.02974173
6413.00   1.76667929   0.02979643
6414.00   1.77487707   0.02982777
6415.00   1.75935078   0.02972188
6416.00   1.74568033   0.02957195
6417.00   1.77200890   0.02959883
6418.00   1.78557563   0.02959616
6419.00   1.79752135   0.02963328
6420.00   1.78409362   0.02956348
6421.00   1.79994440   0.02963680
6422.00   1.79778028   0.02961617
6423.00   1.78938270   0.02950453
6424.00   1.78545380   0.02940202
6425.00   1.80911541   0.02958094
6426.00   1.79224145   0.02955681
6427.00   1.77641368   0.02942696
6428.00   1.76828814   0.02934647
6429.00   1.79288375   0.02954920
6430.00   1.78138781   0.02947735
6431.00   1.79646993   0.02951702
6432.00   1.78624678   0.02949612
6433.00   1.78490877   0.02946264
6434.00   1.78085065   0.02941056
6435.00   1.76911032   0.02937239
6436.00   1.77210844   0.02940254
6437.00   1.77623868   0.02944675
6438.00   1.77724314   0.02941206
6439.00   1.77081919   0.02937648
6440.00   1.78564966   0.02942516
6441.00   1.76321340   0.02925090
6442.00   1.77093172   0.02928088
6443.00   1.78898931   0.02940223
6444.00   1.80289364   0.02942757
6445.00   1.79342544   0.02931329
6446.00   1.77251124   0.02926470
6447.00   1.75974846   0.02928639
6448.00   1.73828471   0.02912381
6449.00   1.74653685   0.02916253
6450.00   1.76611471   0.02931169
6451.00   1.77047062   0.02931417
6452.00   1.76225686   0.02929074
6453.00   1.76937985   0.02932772
6454.00   1.77228236   0.02932639
6455.00   1.73423409   0.02913271
6456.00   1.72531772   0.02909214
6457.00   1.75822544   0.02928405
6458.00   1.77571321   0.02936344
6459.00   1.75542819   0.02929114
6460.00   1.72015107   0.02911181
6461.00   1.71369827   0.02900769
6462.00   1.70506120   0.02893128
6463.00   1.71387053   0.02911629
6464.00   1.70491624   0.02921067
6465.00   1.72908187   0.02936117
6466.00   1.74603045   0.02942085
6467.00   1.72049880   0.02926091
6468.00   1.71713638   0.02913268
6469.00   1.75102639   0.02925680
6470.00   1.73557591   0.02941293
%6471.00   1.45181286   0.02892806
%6472.00   1.29861450   0.02813949
%6473.00   1.46022189   0.03064887
%6474.00   1.59206247   0.03251106
%6475.00   1.41135120   0.03106683
%6476.00   1.29838514   0.02828734
%6477.00   1.37654638   0.02901037
%6478.00   1.53673482   0.03054587
%6479.00   1.67905831   0.03107012
6480.00   1.74921370   0.03000153
6481.00   1.72034121   0.02932323
6482.00   1.68571591   0.02891191
6483.00   1.68227243   0.02868107
6484.00   1.68386030   0.02844802
6485.00   1.67251778   0.02836634
6486.00   1.65543020   0.02830334
6487.00   1.67229283   0.02867061
6488.00   1.68863869   0.02879979
6489.00   1.69308341   0.02850040
%6490.00   1.76060212   0.02971008
%6491.00   1.96187949   0.03328975
%6492.00   1.88652086   0.03454776
%6493.00   1.74575567   0.03269537
6494.00   1.65740347   0.03022184
6495.00   1.64536560   0.02893431
6496.00   1.62246132   0.02869430
6497.00   1.65628302   0.02900854
6498.00   1.68760467   0.02933582
6499.00   1.69387388   0.02950918
6500.00   1.68088198   0.02951945
6501.00   1.67723477   0.02939848
6502.00   1.70448351   0.02929940
6503.00   1.70833206   0.02915058
6504.00   1.69431019   0.02909132
6505.00   1.69160843   0.02917585
6506.00   1.69725442   0.02933384
6507.00   1.69577134   0.02934911
6508.00   1.70279634   0.02925066
6509.00   1.72027564   0.02914153
6510.00   1.70111668   0.02887866
6511.00   1.68252516   0.02870321
6512.00   1.66789150   0.02857882
6513.00   1.66364503   0.02849419
6514.00   1.65508318   0.02832074
6515.00   1.65679002   0.02821695
6516.00   1.63299251   0.02799193
6517.00   1.60310423   0.02776083
6518.00   1.59726858   0.02773969
6519.00   1.60379386   0.02784701
6520.00   1.60471177   0.02798778
6521.00   1.62635660   0.02827857
6522.00   1.64467883   0.02847370
6523.00   1.64575446   0.02851090
6524.00   1.65222454   0.02853378
6525.00   1.63991714   0.02843032
6526.00   1.62674117   0.02833291
6527.00   1.63046765   0.02838295
6528.00   1.63843644   0.02844862
6529.00   1.64807010   0.02851447
6530.00   1.66381931   0.02873999
6531.00   1.65576601   0.02887832
6532.00   1.64327705   0.02900132
6533.00   1.63174617   0.02906102
6534.00   1.62158871   0.02900799
6535.00   1.61373639   0.02875739
6536.00   1.63295746   0.02856338
6537.00   1.63421035   0.02832455
6538.00   1.62229884   0.02820972
6539.00   1.64071655   0.02834888
6540.00   1.65403759   0.02844797
6541.00   1.64346313   0.02839753
6542.00   1.62978935   0.02840027
6543.00   1.61776698   0.02842913
6544.00   1.60489237   0.02837523
6545.00   1.58220816   0.02818910
6546.00   1.59080648   0.02818617
6547.00   1.58671439   0.02805048
6548.00   1.56843865   0.02784286
6549.00   1.56630588   0.02777753
6550.00   1.58518171   0.02790470
6551.00   1.59077370   0.02805423
6552.00   1.60045767   0.02841928
6553.00   1.59924531   0.02861582
6554.00   1.58963895   0.02860580
6555.00   1.57569480   0.02854156
6556.00   1.58123922   0.02845507
6557.00   1.58317387   0.02815335
6558.00   1.58428407   0.02785052
6559.00   1.57344222   0.02769735
6560.00   1.56429815   0.02777709
6561.00   1.59731269   0.02828007
6562.00   1.63189578   0.02873806
6563.00   1.64445066   0.02889301
6564.00   1.62435603   0.02870477
6565.00   1.60637689   0.02853445
6566.00   1.58859813   0.02812293
6567.00   1.58188343   0.02798373
6568.00   1.58607233   0.02798549
6569.00   1.60154128   0.02805337
6570.00   1.60691547   0.02811371
6571.00   1.60632408   0.02810623
6572.00   1.61054373   0.02798588
6573.00   1.61656141   0.02792435
6574.00   1.59528220   0.02785803
6575.00   1.59069633   0.02796047
6576.00   1.57333863   0.02813936
6577.00   1.59493649   0.02842266
6578.00   1.60208571   0.02852480
6579.00   1.61709964   0.02859702
6580.00   1.62226129   0.02852924
6581.00   1.62531209   0.02834192
6582.00   1.62765217   0.02818216
6583.00   1.61649024   0.02809057
6584.00   1.62966990   0.02818738
6585.00   1.63660908   0.02821898
6586.00   1.63411880   0.02813716
6587.00   1.61970091   0.02801675
6588.00   1.63656211   0.02816025
6589.00   1.65726686   0.02831311
6590.00   1.66328716   0.02834047
6591.00   1.65465796   0.02826364
6592.00   1.65612316   0.02826061
6593.00   1.66939616   0.02834883
6594.00   1.68566120   0.02849335
6595.00   1.67862618   0.02841662
6596.00   1.67231524   0.02836751
6597.00   1.66907024   0.02839446
6598.00   1.65964866   0.02841271
6599.00   1.66127491   0.02834318
6600.00   1.67022622   0.02829896
6601.00   1.66082430   0.02821272
6602.00   1.65289712   0.02820589
6603.00   1.66899908   0.02835596
6604.00   1.66840172   0.02845243
6605.00   1.65404761   0.02842274
6606.00   1.64574575   0.02827867
6607.00   1.67071724   0.02832544
6608.00   1.69462228   0.02835648
6609.00   1.71064973   0.02836135
6610.00   1.70715511   0.02830430
6611.00   1.69480491   0.02826014
6612.00   1.68060613   0.02818200
6613.00   1.67310619   0.02812352
6614.00   1.66805220   0.02805913
6615.00   1.67175090   0.02804695
6616.00   1.68348777   0.02809551
6617.00   1.70060480   0.02821741
6618.00   1.69679737   0.02823823
6619.00   1.67024958   0.02809225
6620.00   1.65937138   0.02799649
6621.00   1.68755484   0.02813239
6622.00   1.70283461   0.02821397
6623.00   1.70691013   0.02820942
6624.00   1.70843899   0.02820754
6625.00   1.70070934   0.02820346
6626.00   1.69822443   0.02823633
6627.00   1.69276214   0.02819702
6628.00   1.68034101   0.02805924
6629.00   1.68591619   0.02805213
6630.00   1.70755243   0.02818036
6631.00   1.69497466   0.02809828
6632.00   1.67868853   0.02798088
6633.00   1.69780326   0.02804060
6634.00   1.70705688   0.02810322
6635.00   1.67944098   0.02799875
6636.00   1.64354384   0.02779901
6637.00   1.64902806   0.02775606
6638.00   1.67782307   0.02785060
6639.00   1.70210707   0.02795367
6640.00   1.71075940   0.02798858
6641.00   1.69778943   0.02795717
6642.00   1.68344307   0.02786211
6643.00   1.67260218   0.02775254
6644.00   1.67915809   0.02776740
6645.00   1.70038378   0.02786852
6646.00   1.69829953   0.02785445
6647.00   1.69476140   0.02779550
6648.00   1.68205810   0.02769343
6649.00   1.69584966   0.02776712
6650.00   1.70419574   0.02779023
6651.00   1.70976758   0.02782655
6652.00   1.69769716   0.02772979
6653.00   1.68635440   0.02765654
6654.00   1.68619978   0.02769399
6655.00   1.70417559   0.02773820
6656.00   1.70733213   0.02770213
6657.00   1.70343888   0.02766315
6658.00   1.67694092   0.02754811
6659.00   1.68963218   0.02762013
6660.00   1.70333278   0.02770405
6661.00   1.72409654   0.02783882
6662.00   1.73060393   0.02784011
6663.00   1.71751165   0.02775096
6664.00   1.73140383   0.02784924
6665.00   1.74748230   0.02786655
6666.00   1.76097655   0.02787397
6667.00   1.74844158   0.02785000
6668.00   1.72209215   0.02774092
6669.00   1.73556852   0.02777397
6670.00   1.73467088   0.02773654
6671.00   1.70096886   0.02753660
6672.00   1.70030093   0.02754641
6673.00   1.72992277   0.02765629
6674.00   1.71430731   0.02753600
6675.00   1.70237851   0.02743599
6676.00   1.72535324   0.02762071
6677.00   1.74588454   0.02781178
6678.00   1.73783624   0.02780494
6679.00   1.72063780   0.02762263
6680.00   1.74254537   0.02769115
6681.00   1.75766325   0.02776098
6682.00   1.71661282   0.02752438
6683.00   1.72800410   0.02753697
6684.00   1.74018598   0.02753145
6685.00   1.71490979   0.02738406
6686.00   1.72787285   0.02752720
6687.00   1.73308229   0.02750053
6688.00   1.72994399   0.02745330
6689.00   1.73781157   0.02745495
6690.00   1.72919869   0.02739662
6691.00   1.72217512   0.02731640
6692.00   1.70442772   0.02717054
6693.00   1.69789052   0.02712657
6694.00   1.69428134   0.02705154
6695.00   1.70252848   0.02707351
6696.00   1.73064113   0.02721473
6697.00   1.71906424   0.02722472
6698.00   1.70369768   0.02715235
6699.00   1.69830585   0.02711778
6700.00   1.70193946   0.02708968
6701.00   1.72442007   0.02724109
6702.00   1.71308589   0.02718025
6703.00   1.70317507   0.02713838
6704.00   1.69924343   0.02715350
6705.00   1.72018003   0.02743203
6706.00   1.71275234   0.02758878
6707.00   1.71862125   0.02775063
6708.00   1.72655833   0.02784922
6709.00   1.71188784   0.02777964
6710.00   1.68930209   0.02755600
6711.00   1.69857740   0.02738856
6712.00   1.69852304   0.02719780
6713.00   1.69403243   0.02703972
6714.00   1.69175005   0.02694784
6715.00   1.69103217   0.02693731
6716.00   1.67809963   0.02692206
6717.00   1.65893412   0.02683486
6718.00   1.65853405   0.02678204
6719.00   1.67416811   0.02680995
6720.00   1.67968273   0.02681065
6721.00   1.67313981   0.02675047
6722.00   1.69613647   0.02680836
6723.00   1.72539210   0.02689650
6724.00   1.71290028   0.02681948
6725.00   1.66776764   0.02654889
6726.00   1.66775346   0.02651402
6727.00   1.68489385   0.02658304
6728.00   1.68968558   0.02666082
6729.00   1.68643785   0.02661021
6730.00   1.69096398   0.02661396
6731.00   1.67722917   0.02654986
6732.00   1.66828072   0.02654194
6733.00   1.66295898   0.02644025
6734.00   1.69954801   0.02655188
6735.00   1.72083974   0.02665815
6736.00   1.71492171   0.02667669
6737.00   1.69259715   0.02657006
6738.00   1.69422960   0.02659857
6739.00   1.69459867   0.02659704
6740.00   1.71143103   0.02670264
6741.00   1.71366382   0.02672647
6742.00   1.71013045   0.02668474
6743.00   1.69833016   0.02655970
6744.00   1.69865727   0.02650581
6745.00   1.68541384   0.02640982
6746.00   1.66061497   0.02625364
6747.00   1.67755365   0.02640070
6748.00   1.65115666   0.02649692
6749.00   1.64760327   0.02662347
6750.00   1.66554785   0.02673964
6751.00   1.68151259   0.02672099
6752.00   1.67105651   0.02651707
6753.00   1.67263651   0.02628942
6754.00   1.68836427   0.02626588
6755.00   1.69765306   0.02643987
6756.00   1.70457232   0.02664387
6757.00   1.70860958   0.02653906
6758.00   1.69337773   0.02644829
6759.00   1.69552970   0.02638233
6760.00   1.70160389   0.02637248
6761.00   1.70939839   0.02654700
6762.00   1.71096873   0.02722905
%6763.00   1.58564270   0.02810896
%6764.00   1.49555111   0.02950522
%6765.00   1.61503506   0.03197671
%6766.00   1.86041176   0.03586273
%6767.00   1.84830582   0.03304723
%6768.00   1.75091696   0.02817716
6769.00   1.69465625   0.02622055
6770.00   1.70173049   0.02616539
6771.00   1.68812418   0.02601854
6772.00   1.67197585   0.02592039
6773.00   1.68469298   0.02596539
6774.00   1.71510088   0.02610425
6775.00   1.69947660   0.02601737
6776.00   1.67618370   0.02589360
6777.00   1.68251395   0.02591895
6778.00   1.68078458   0.02595077
6779.00   1.68696594   0.02598788
6780.00   1.69128728   0.02601446
6781.00   1.67013979   0.02597848
6782.00   1.68578267   0.02607740
6783.00   1.70365894   0.02629166
6784.00   1.67724228   0.02659943
%6785.00   1.62112010   0.02685132
%6786.00   1.60612404   0.02737410
%6787.00   1.65703559   0.02792845
%6788.00   1.73981762   0.02772352
%6789.00   1.73297548   0.02678977
6790.00   1.69738650   0.02612875
6791.00   1.67837489   0.02591401
6792.00   1.69414663   0.02594279
6793.00   1.68891120   0.02582705
6794.00   1.67717338   0.02575526
6795.00   1.67107272   0.02568457
6796.00   1.68629003   0.02570438
6797.00   1.69043028   0.02568175
6798.00   1.68715477   0.02568654
6799.00   1.68013299   0.02565494
6800.00   1.68378448   0.02570136
6801.00   1.68206501   0.02568161
6802.00   1.68777597   0.02567090
6803.00   1.69159114   0.02567806
6804.00   1.69303107   0.02572885
6805.00   1.68517542   0.02570786
6806.00   1.69032812   0.02570895
6807.00   1.69691241   0.02571635
6808.00   1.69444621   0.02567969
6809.00   1.68712473   0.02558707
6810.00   1.68795776   0.02558929
6811.00   1.69495332   0.02563948
6812.00   1.69082928   0.02565651
6813.00   1.68842173   0.02560301
6814.00   1.68836069   0.02560386
6815.00   1.68443894   0.02562095
6816.00   1.67112255   0.02556729
6817.00   1.66815519   0.02550641
6818.00   1.68358791   0.02561046
6819.00   1.69119287   0.02568917
6820.00   1.70092595   0.02570717
6821.00   1.71104848   0.02572997
6822.00   1.69039857   0.02561336
6823.00   1.67404234   0.02554226
6824.00   1.67557955   0.02555017
6825.00   1.69120884   0.02566829
6826.00   1.69037271   0.02585051
6827.00   1.69017613   0.02610585
6828.00   1.69688332   0.02644932
6829.00   1.68833876   0.02659187
6830.00   1.65261579   0.02640927
6831.00   1.64055085   0.02631494
6832.00   1.67083132   0.02644782
6833.00   1.67924643   0.02646942
6834.00   1.67148530   0.02646270
6835.00   1.66859663   0.02638309
6836.00   1.65958440   0.02625606
6837.00   1.69034457   0.02609498
6838.00   1.70631099   0.02585383
6839.00   1.70368838   0.02566692
6840.00   1.70105231   0.02565880
6841.00   1.67832708   0.02558247
6842.00   1.66295099   0.02553539
6843.00   1.68289280   0.02561832
6844.00   1.68851519   0.02560328
6845.00   1.66241622   0.02536782
6846.00   1.66011429   0.02527345
6847.00   1.68166471   0.02537463
6848.00   1.68331301   0.02541046
6849.00   1.67864752   0.02533627
6850.00   1.65995884   0.02524789
6851.00   1.65406370   0.02524899
6852.00   1.65953851   0.02530753
6853.00   1.66530466   0.02529204
6854.00   1.67283380   0.02526944
6855.00   1.67952847   0.02527931
6856.00   1.67774057   0.02525146
6857.00   1.66308784   0.02512973
6858.00   1.64350688   0.02506682
6859.00   1.65573049   0.02516676
6860.00   1.65931940   0.02524221
6861.00   1.65518558   0.02550958
6862.00   1.65973186   0.02608116
6863.00   1.65000081   0.02660698
6864.00   1.65898395   0.02680116
6865.00   1.66210532   0.02661061
6866.00   1.64845395   0.02615140
6867.00   1.65466070   0.02610068
%6868.00   1.71059310   0.02728618
%6869.00   1.72569430   0.02964072
%6870.00   1.67586708   0.03142002
%6871.00   1.63895750   0.03220356
6872.00   1.66690886   0.03198214
6873.00   1.71639657   0.03158025
6874.00   1.69118214   0.03060706
6875.00   1.66539121   0.02975247
6876.00   1.67694139   0.02928586
6877.00   1.69306135   0.02898301
6878.00   1.67086005   0.02840549
6879.00   1.66817856   0.02805775
6880.00   1.66995668   0.02780304
6881.00   1.66627908   0.02737739
6882.00   1.67908144   0.02673156
6883.00   1.69187832   0.02606966
6884.00   1.68442941   0.02565919
6885.00   1.66399074   0.02555085
6886.00   1.63337564   0.02571170
6887.00   1.62481737   0.02619598
6888.00   1.64907348   0.02679606
6889.00   1.65888274   0.02716011
6890.00   1.65286887   0.02721371
6891.00   1.63642740   0.02705884
6892.00   1.62400734   0.02684676
6893.00   1.65152347   0.02686057
6894.00   1.64525580   0.02669733
6895.00   1.62847686   0.02649711
6896.00   1.63768375   0.02649680
6897.00   1.65272188   0.02659293
6898.00   1.64232898   0.02657137
6899.00   1.63499153   0.02665824
6900.00   1.66490018   0.02693478
6901.00   1.67985439   0.02695527
6902.00   1.63782167   0.02664151
6903.00   1.58530235   0.02606346
6904.00   1.60943806   0.02589408
6905.00   1.66390848   0.02614734
6906.00   1.64500070   0.02628551
6907.00   1.62848067   0.02606587
6908.00   1.62678719   0.02583353
6909.00   1.63699663   0.02578863
6910.00   1.62265515   0.02601003
6911.00   1.60068870   0.02612474
6912.00   1.61862898   0.02614779
6913.00   1.65494013   0.02620042
6914.00   1.64544773   0.02613720
6915.00   1.60876107   0.02594260
6916.00   1.62288904   0.02557631
6917.00   1.61196685   0.02510211
6918.00   1.62074280   0.02497579
6919.00   1.63308203   0.02528865
6920.00   1.63669419   0.02564669
6921.00   1.59453368   0.02584030
6922.00   1.57664490   0.02613218
6923.00   1.57695127   0.02638436
6924.00   1.60148144   0.02669819
6925.00   1.60404253   0.02675407
6926.00   1.60751224   0.02625753
6927.00   1.59585476   0.02549444
6928.00   1.60536194   0.02505958
6929.00   1.59631467   0.02496605
6930.00   1.58162534   0.02519326
6931.00   1.58378172   0.02541529
6932.00   1.59254932   0.02546452
6933.00   1.59138584   0.02523829
6934.00   1.59089196   0.02510358
6935.00   1.58885741   0.02516265
6936.00   1.57249403   0.02529163
6937.00   1.57182717   0.02555247
6938.00   1.59793329   0.02588251
6939.00   1.61874390   0.02610147
6940.00   1.60685134   0.02615917
6941.00   1.57196641   0.02603587
6942.00   1.54243898   0.02585927
6943.00   1.55173850   0.02572365
6944.00   1.57189107   0.02559175
6945.00   1.57438278   0.02530614
6946.00   1.56340289   0.02509463
6947.00   1.56872594   0.02525666
6948.00   1.58516753   0.02574618
6949.00   1.59125376   0.02612781
6950.00   1.59024465   0.02627262
6951.00   1.59441471   0.02613233
6952.00   1.59857821   0.02565063
6953.00   1.58588648   0.02506769
6954.00   1.57690394   0.02474666
6955.00   1.58155918   0.02468625
6956.00   1.59547246   0.02484979
6957.00   1.59650159   0.02508774
6958.00   1.57912064   0.02510726
6959.00   1.57265484   0.02503757
6960.00   1.56632245   0.02494007
6961.00   1.56990647   0.02498785
6962.00   1.58901489   0.02515716
6963.00   1.60276532   0.02513063
6964.00   1.59603095   0.02500235
6965.00   1.58202839   0.02480510
6966.00   1.58757520   0.02475630
6967.00   1.57019019   0.02468789
6968.00   1.56853926   0.02463094
6969.00   1.58286738   0.02463077
6970.00   1.58222067   0.02462570
6971.00   1.57821989   0.02469913
6972.00   1.58357859   0.02472823
6973.00   1.57515860   0.02468021
6974.00   1.58866620   0.02467988
6975.00   1.58215082   0.02459048
6976.00   1.56415176   0.02459190
6977.00   1.53745866   0.02460372
6978.00   1.54872429   0.02490101
6979.00   1.57187676   0.02514214
6980.00   1.55944741   0.02498356
6981.00   1.55500412   0.02475918
6982.00   1.55760169   0.02453222
6983.00   1.54082751   0.02431193
6984.00   1.54591489   0.02431216
6985.00   1.56148982   0.02436004
6986.00   1.53915548   0.02434072
6987.00   1.53649700   0.02447722
6988.00   1.54836428   0.02470862
6989.00   1.52542424   0.02473673
6990.00   1.53758574   0.02485429
6991.00   1.54655290   0.02485648
6992.00   1.54429877   0.02476230
6993.00   1.55496240   0.02480267
6994.00   1.55018115   0.02481459
6995.00   1.56474066   0.02492073
6996.00   1.56785965   0.02488629
6997.00   1.53094363   0.02457401
6998.00   1.53989768   0.02449128
6999.00   1.55949211   0.02463183
7000.00   1.55159426   0.02472462
7001.00   1.52840185   0.02465700
7002.00   1.53806937   0.02460996
7003.00   1.54291391   0.02441556
7004.00   1.53368497   0.02431628
7005.00   1.53677678   0.02455679
7006.00   1.54019272   0.02479256
7007.00   1.52443838   0.02479955
7008.00   1.50642633   0.02457675
7009.00   1.50781131   0.02445382
7010.00   1.51635838   0.02451986
7011.00   1.52088213   0.02466711
7012.00   1.52502203   0.02478246
7013.00   1.52902484   0.02477316
7014.00   1.53056717   0.02457466
7015.00   1.52798319   0.02434982
7016.00   1.51870680   0.02429780
7017.00   1.52273941   0.02455189
7018.00   1.52521276   0.02472590
7019.00   1.53321683   0.02473571
7020.00   1.51476860   0.02446882
7021.00   1.50134850   0.02420588
7022.00   1.50029039   0.02411517
7023.00   1.51894069   0.02421601
7024.00   1.50276542   0.02421687
7025.00   1.48951364   0.02419907
7026.00   1.49600458   0.02422631
7027.00   1.51546776   0.02445718
7028.00   1.50724483   0.02459180
7029.00   1.46764517   0.02455571
7030.00   1.47036707   0.02464063
7031.00   1.50047684   0.02468043
7032.00   1.51025438   0.02463343
7033.00   1.49433637   0.02439619
7034.00   1.50573087   0.02426849
7035.00   1.50222063   0.02412715
7036.00   1.50021315   0.02395929
7037.00   1.48586798   0.02387281
7038.00   1.48614383   0.02396271
7039.00   1.48475075   0.02416427
7040.00   1.49090302   0.02447525
7041.00   1.47826242   0.02457532
7042.00   1.47156835   0.02445875
7043.00   1.46295071   0.02426506
7044.00   1.47132492   0.02420462
7045.00   1.46345782   0.02404042
7046.00   1.47730541   0.02408047
7047.00   1.48199797   0.02418505
7048.00   1.47173667   0.02417018
7049.00   1.49907017   0.02429980
7050.00   1.49921417   0.02426863
7051.00   1.49276674   0.02421764
7052.00   1.48340487   0.02426739
7053.00   1.47556257   0.02436878
7054.00   1.46825671   0.02438710
7055.00   1.46259189   0.02426758
7056.00   1.46650505   0.02420134
7057.00   1.47485602   0.02417413
7058.00   1.46008575   0.02398702
7059.00   1.45709300   0.02394116
7060.00   1.45014775   0.02401146
7061.00   1.45562530   0.02404023
7062.00   1.44860625   0.02399088
7063.00   1.45463824   0.02402804
7064.00   1.47138119   0.02409394
7065.00   1.48343587   0.02422910
7066.00   1.47736633   0.02426530
7067.00   1.46159232   0.02420606
7068.00   1.46533239   0.02421315
7069.00   1.49223983   0.02428755
7070.00   1.47694325   0.02413081
7071.00   1.45697296   0.02396730
7072.00   1.45961511   0.02397822
7073.00   1.46608782   0.02404975
7074.00   1.44924033   0.02396032
7075.00   1.44887567   0.02393929
7076.00   1.45857894   0.02401100
7077.00   1.44790864   0.02397334
7078.00   1.45354712   0.02401387
7079.00   1.46999693   0.02412815
7080.00   1.46679282   0.02416281
7081.00   1.45362234   0.02413517
7082.00   1.45409203   0.02419110
7083.00   1.45434403   0.02412978
7084.00   1.43808806   0.02394503
7085.00   1.44239044   0.02395067
7086.00   1.45242929   0.02398036
7087.00   1.44855154   0.02395939
7088.00   1.40994489   0.02394021
7089.00   1.40409744   0.02413674
7090.00   1.42864466   0.02431789
7091.00   1.44233346   0.02423022
7092.00   1.42026293   0.02401391
7093.00   1.42900205   0.02391736
7094.00   1.44721127   0.02394703
7095.00   1.43819046   0.02389143
7096.00   1.42259431   0.02376667
7097.00   1.43579137   0.02382288
7098.00   1.43124986   0.02377890
7099.00   1.44208384   0.02385112
7100.00   1.44496071   0.02384878
7101.00   1.44501925   0.02386564
7102.00   1.43601191   0.02383752
7103.00   1.42261982   0.02371252
7104.00   1.42191052   0.02370419
7105.00   1.41088605   0.02368078
7106.00   1.39051342   0.02351218
7107.00   1.39713550   0.02358672
7108.00   1.41692901   0.02368652
7109.00   1.41422653   0.02365044
7110.00   1.39450645   0.02354933
7111.00   1.40101016   0.02355777
7112.00   1.42015076   0.02361828
7113.00   1.43582106   0.02370979
7114.00   1.41340518   0.02363858
7115.00   1.38920808   0.02355564
7116.00   1.41120911   0.02364805
7117.00   1.41800165   0.02366070
7118.00   1.41214132   0.02366161
7119.00   1.39285040   0.02360973
7120.00   1.39568138   0.02366308
7121.00   1.41073751   0.02370602
7122.00   1.41614723   0.02374129
7123.00   1.41176963   0.02371719
7124.00   1.40402126   0.02367871
7125.00   1.41232848   0.02376967
7126.00   1.40585458   0.02372357
7127.00   1.40763140   0.02369631
7128.00   1.42662430   0.02373502
7129.00   1.41783261   0.02367215
7130.00   1.40235865   0.02366587
7131.00   1.40003669   0.02368444
7132.00   1.41200256   0.02372783
7133.00   1.40737700   0.02365522
7134.00   1.42257214   0.02371870
7135.00   1.42967618   0.02372991
7136.00   1.41661024   0.02365673
7137.00   1.40848422   0.02364241
7138.00   1.42680717   0.02373861
7139.00   1.42395365   0.02371229
7140.00   1.40746546   0.02367397
7141.00   1.41301131   0.02384581
7142.00   1.42362475   0.02404030
7143.00   1.42438149   0.02411456
7144.00   1.42171180   0.02401636
7145.00   1.42301464   0.02388745
7146.00   1.41727829   0.02377951
7147.00   1.41078663   0.02372514
7148.00   1.40521693   0.02372273
7149.00   1.41277158   0.02375233
7150.00   1.42138767   0.02377842
7151.00   1.41535091   0.02374284
7152.00   1.41484189   0.02383232
7153.00   1.39806080   0.02372397
7154.00   1.40557241   0.02364712
7155.00   1.40488267   0.02359172
7156.00   1.41155827   0.02364085
7157.00   1.40478611   0.02367798
7158.00   1.38880038   0.02362834
7159.00   1.38283551   0.02365572
7160.00   1.37806058   0.02364008
7161.00   1.39150178   0.02366693
7162.00   1.41414189   0.02376289
7163.00   1.40868425   0.02370632
7164.00   1.40362394   0.02369145
7165.00   1.37005258   0.02362188
7166.00   1.34632134   0.02374875
7167.00   1.37695599   0.02407983
%7168.00   1.32143426   0.02512155
%7169.00   1.21192992   0.02622519
%7170.00   1.23678184   0.02663515
%7171.00   1.34543324   0.02649366
7172.00   1.38157690   0.02572593
7173.00   1.38223457   0.02541700
7174.00   1.35888124   0.02563256
7175.00   1.36955023   0.02593363
7176.00   1.39237905   0.02599078
7177.00   1.40865874   0.02620171
7178.00   1.35507250   0.02610772
7179.00   1.32373703   0.02603210
7180.00   1.34980166   0.02580610
7181.00   1.39818215   0.02543287
7182.00   1.38819456   0.02497873
7183.00   1.36506915   0.02467284
7184.00   1.33781362   0.02449682
7185.00   1.33788121   0.02472405
7186.00   1.34690595   0.02541063
7187.00   1.33818293   0.02634766
7188.00   1.34192753   0.02725321
7189.00   1.37587547   0.02747622
7190.00   1.40055037   0.02604950
7191.00   1.40073514   0.02499006
7192.00   1.38228273   0.02472538
7193.00   1.35019493   0.02506923
7194.00   1.33070135   0.02568161
7195.00   1.33279014   0.02605491
7196.00   1.34995246   0.02582213
7197.00   1.37153077   0.02539633
7198.00   1.38611221   0.02511192
7199.00   1.35857379   0.02487822
7200.00   1.34226501   0.02506962
7201.00   1.36592150   0.02577234
7202.00   1.36836362   0.02612198
7203.00   1.33495927   0.02571297
7204.00   1.34567869   0.02532563
7205.00   1.37802792   0.02542594
7206.00   1.36215472   0.02542796
7207.00   1.32791781   0.02523918
7208.00   1.33498073   0.02506092
7209.00   1.36238062   0.02473001
7210.00   1.37496388   0.02451624
7211.00   1.35201693   0.02421036
7212.00   1.32851756   0.02385665
7213.00   1.35772407   0.02374805
7214.00   1.36885285   0.02356869
7215.00   1.38036323   0.02346069
7216.00   1.38352895   0.02347025
7217.00   1.36689782   0.02357970
7218.00   1.35659254   0.02370101
7219.00   1.35376883   0.02379496
7220.00   1.36430693   0.02373479
7221.00   1.37704754   0.02360453
7222.00   1.37040925   0.02341723
7223.00   1.35207534   0.02341474
7224.00   1.32847118   0.02348686
7225.00   1.30843353   0.02342472
7226.00   1.33071923   0.02360428
7227.00   1.37530708   0.02382182
7228.00   1.39569020   0.02399695
7229.00   1.35424161   0.02376316
7230.00   1.32167220   0.02341454
7231.00   1.33132267   0.02321755
7232.00   1.33864439   0.02327333
7233.00   1.32138216   0.02344213
7234.00   1.28266680   0.02390691
7235.00   1.26321900   0.02481705
7236.00   1.29490066   0.02604832
7237.00   1.32006502   0.02675208
7238.00   1.36509705   0.02699747
7239.00   1.38565564   0.02691716
7240.00   1.35724056   0.02673925
7241.00   1.34624171   0.02698745
7242.00   1.29563630   0.02731411
7243.00   1.31239009   0.02788575
7244.00   1.32870913   0.02820929
7245.00   1.34589374   0.02824628
7246.00   1.34301114   0.02811098
7247.00   1.34126782   0.02757373
7248.00   1.34481072   0.02655158
7249.00   1.36484003   0.02535600
7250.00   1.37012362   0.02449311
7251.00   1.37284589   0.02426051
7252.00   1.36370909   0.02433585
7253.00   1.34561920   0.02513412
7254.00   1.31476736   0.02600232
7255.00   1.27815115   0.02591392
7256.00   1.32376468   0.02514711
7257.00   1.38679671   0.02473425
7258.00   1.41137016   0.02453589
7259.00   1.37752056   0.02429850
7260.00   1.35685503   0.02410608
7261.00   1.36326754   0.02412102
7262.00   1.36877871   0.02413450
7263.00   1.35182190   0.02406607
7264.00   1.33073187   0.02411702
7265.00   1.34809184   0.02473642
7266.00   1.35353374   0.02542718
7267.00   1.33955991   0.02539437
7268.00   1.33792043   0.02478453
7269.00   1.37365341   0.02418203
7270.00   1.37960339   0.02392173
7271.00   1.36325669   0.02371430
7272.00   1.35395646   0.02384186
7273.00   1.36937523   0.02452041
7274.00   1.38047469   0.02578903
7275.00   1.36639285   0.02725146
7276.00   1.34512401   0.02841051
7277.00   1.30825639   0.02910331
7278.00   1.29445171   0.02948231
7279.00   1.31764829   0.02877594
7280.00   1.32249355   0.02649094
7281.00   1.35228503   0.02498272
7282.00   1.39956999   0.02498114
7283.00   1.39020646   0.02524580
7284.00   1.34939265   0.02508100
7285.00   1.35357356   0.02491302
7286.00   1.36797929   0.02466375
7287.00   1.35793042   0.02421087
7288.00   1.32960868   0.02361878
7289.00   1.32538295   0.02370421
7290.00   1.32105803   0.02401259
7291.00   1.34722114   0.02456045
7292.00   1.33809292   0.02488410
7293.00   1.34167552   0.02506626
7294.00   1.36065078   0.02518501
7295.00   1.38780713   0.02525906
7296.00   1.40590894   0.02511772
7297.00   1.38878393   0.02475720
7298.00   1.37687647   0.02416250
7299.00   1.37947214   0.02372665
7300.00   1.36845040   0.02348383
7301.00   1.36835337   0.02371109
7302.00   1.34815395   0.02410756
7303.00   1.37186098   0.02474172
7304.00   1.37910354   0.02549516
7305.00   1.36743355   0.02594570
7306.00   1.35968983   0.02565751
7307.00   1.38978589   0.02476501
7308.00   1.40341246   0.02396084
7309.00   1.40996504   0.02366991
7310.00   1.38567507   0.02375301
7311.00   1.34681022   0.02397676
7312.00   1.34031010   0.02414560
7313.00   1.34171045   0.02445390
7314.00   1.37678826   0.02527625
7315.00   1.42285740   0.02637954
7316.00   1.41267848   0.02675821
7317.00   1.38725448   0.02707393
7318.00   1.38682389   0.02738495
7319.00   1.38297069   0.02712242
7320.00   1.36487639   0.02593609
7321.00   1.38609886   0.02495127
7322.00   1.39871037   0.02423860
7323.00   1.38701892   0.02370952
7324.00   1.37610292   0.02339097
7325.00   1.38374448   0.02332023
7326.00   1.39334106   0.02338241
7327.00   1.40922046   0.02387525
7328.00   1.41692710   0.02448884
7329.00   1.41261923   0.02482316
7330.00   1.40985048   0.02477600
7331.00   1.42207789   0.02466046
7332.00   1.39626336   0.02416532
7333.00   1.38002312   0.02369979
7334.00   1.39805114   0.02365898
7335.00   1.40919864   0.02376836
7336.00   1.41432667   0.02378048
7337.00   1.41781235   0.02378727
7338.00   1.42331219   0.02416600
7339.00   1.42017651   0.02504764
7340.00   1.39779401   0.02580708
7341.00   1.39487350   0.02618308
7342.00   1.40632939   0.02610348
7343.00   1.42124557   0.02575313
7344.00   1.42277598   0.02491600
7345.00   1.41430974   0.02406239
7346.00   1.41163087   0.02351619
7347.00   1.39074397   0.02322134
7348.00   1.39132428   0.02310535
7349.00   1.39598298   0.02323917
7350.00   1.40952301   0.02349918
7351.00   1.40932894   0.02351489
7352.00   1.40016913   0.02339710
7353.00   1.41503930   0.02331804
7354.00   1.41980505   0.02318672
7355.00   1.41985703   0.02312271
7356.00   1.40373087   0.02326872
7357.00   1.39597845   0.02368169
7358.00   1.38005257   0.02386605
7359.00   1.38157141   0.02397694
7360.00   1.39001822   0.02401868
7361.00   1.39823222   0.02392888
7362.00   1.38293386   0.02350016
7363.00   1.37560856   0.02314066
7364.00   1.39054346   0.02315678
7365.00   1.38183713   0.02313186
7366.00   1.36232316   0.02310911
7367.00   1.37427640   0.02369316
7368.00   1.38846910   0.02445182
7369.00   1.38086891   0.02491528
7370.00   1.35290945   0.02497724
7371.00   1.37160254   0.02498846
7372.00   1.38194370   0.02438735
7373.00   1.39190745   0.02365710
7374.00   1.38131356   0.02304888
7375.00   1.37981558   0.02282917
7376.00   1.37409711   0.02273391
7377.00   1.38350964   0.02272732
7378.00   1.38645816   0.02273923
7379.00   1.38550627   0.02276234
7380.00   1.37060261   0.02268609
7381.00   1.36356354   0.02262021
7382.00   1.36911964   0.02262792
7383.00   1.37296367   0.02272321
7384.00   1.37384665   0.02284984
7385.00   1.37795818   0.02294546
7386.00   1.38480949   0.02287653
7387.00   1.38998771   0.02274404
7388.00   1.39042926   0.02261627
7389.00   1.37246776   0.02252229
7390.00   1.35919857   0.02265315
7391.00   1.37106335   0.02310910
7392.00   1.36033487   0.02333264
7393.00   1.35451901   0.02337113
7394.00   1.36945951   0.02328126
7395.00   1.39795899   0.02309452
7396.00   1.36474037   0.02268944
7397.00   1.35102010   0.02250301
7398.00   1.34876871   0.02257099
7399.00   1.35195744   0.02289485
7400.00   1.37323451   0.02347546
7401.00   1.39870977   0.02400853
7402.00   1.37165475   0.02406562
7403.00   1.34533954   0.02384512
7404.00   1.34514976   0.02357996
7405.00   1.37334418   0.02318744
7406.00   1.36393285   0.02266039
7407.00   1.35754228   0.02235273
7408.00   1.36403370   0.02230614
7409.00   1.35678887   0.02205833
7410.00   1.34295726   0.02195072
7411.00   1.33527374   0.02196815
7412.00   1.31970215   0.02192105
7413.00   1.32483232   0.02195518
7414.00   1.34750962   0.02208856
7415.00   1.33899450   0.02206408
7416.00   1.33289075   0.02201072
7417.00   1.33772612   0.02202322
7418.00   1.33767569   0.02200900
7419.00   1.33878565   0.02201367
7420.00   1.34540975   0.02203871
7421.00   1.34634113   0.02204016
7422.00   1.33672011   0.02196413
7423.00   1.32155812   0.02187160
7424.00   1.31272578   0.02183341
7425.00   1.31361449   0.02184552
7426.00   1.31247938   0.02186435
7427.00   1.31264865   0.02192347
7428.00   1.32972050   0.02217508
7429.00   1.32591105   0.02226909
7430.00   1.32226408   0.02232437
7431.00   1.31887007   0.02228768
7432.00   1.32762492   0.02222194
7433.00   1.33766842   0.02215321
7434.00   1.33719802   0.02206053
7435.00   1.31738544   0.02198851
7436.00   1.31863081   0.02215538
7437.00   1.33671129   0.02252823
7438.00   1.33431149   0.02267497
7439.00   1.33546710   0.02281008
7440.00   1.33707380   0.02278530
7441.00   1.32765651   0.02251052
7442.00   1.32747197   0.02215947
7443.00   1.33826768   0.02201172
7444.00   1.32674587   0.02187184
7445.00   1.29946423   0.02171686
7446.00   1.30966401   0.02175224
7447.00   1.32515073   0.02186435
7448.00   1.33380795   0.02194221
7449.00   1.33665061   0.02192651
7450.00   1.33812904   0.02190567
7451.00   1.31539512   0.02181065
7452.00   1.29746509   0.02174568
7453.00   1.30880260   0.02181822
7454.00   1.31716681   0.02188504
7455.00   1.31404877   0.02184475
7456.00   1.29870510   0.02172646
7457.00   1.30882525   0.02182410
7458.00   1.32032657   0.02190144
7459.00   1.32060170   0.02188782
7460.00   1.30241084   0.02180209
7461.00   1.28992248   0.02179171
7462.00   1.29749656   0.02183630
7463.00   1.29835320   0.02189246
7464.00   1.29994321   0.02195552
7465.00   1.29759645   0.02198528
7466.00   1.29221296   0.02194738
7467.00   1.29796696   0.02198756
7468.00   1.31117427   0.02206772
7469.00   1.31174803   0.02209600
7470.00   1.29805303   0.02211583
7471.00   1.28302145   0.02214341
7472.00   1.28533864   0.02229502
7473.00   1.29996300   0.02245441
7474.00   1.30121338   0.02239660
7475.00   1.28226423   0.02218376
7476.00   1.28504980   0.02235016
7477.00   1.29558325   0.02295463
7478.00   1.28264046   0.02307201
7479.00   1.28549290   0.02254910
7480.00   1.26334047   0.02220137
7481.00   1.28187859   0.02240029
7482.00   1.30073655   0.02258565
7483.00   1.28197420   0.02245111
7484.00   1.28112221   0.02238288
7485.00   1.29236674   0.02240091
7486.00   1.30421495   0.02223313
7487.00   1.28063500   0.02182748
7488.00   1.28631043   0.02169020
7489.00   1.28852677   0.02165251
7490.00   1.27507687   0.02160227
7491.00   1.28201866   0.02167075
7492.00   1.27453125   0.02168878
7493.00   1.25742793   0.02158925
7494.00   1.26882124   0.02163263
7495.00   1.28731573   0.02170333
7496.00   1.28603268   0.02169109
7497.00   1.27727783   0.02155380
7498.00   1.28458357   0.02151552
7499.00   1.28517246   0.02151888
7500.00   1.27694905   0.02149357
7501.00   1.27566135   0.02147663
7502.00   1.27316713   0.02146763
7503.00   1.27208602   0.02147806
7504.00   1.27776790   0.02150876
7505.00   1.27870774   0.02147283
7506.00   1.28103447   0.02144810
7507.00   1.28830838   0.02150271
7508.00   1.28029156   0.02145572
7509.00   1.24914098   0.02126220
7510.00   1.24343419   0.02122455
7511.00   1.26201701   0.02133543
7512.00   1.27391374   0.02138857
7513.00   1.26081049   0.02133484
7514.00   1.26049876   0.02137619
7515.00   1.26537681   0.02145991
7516.00   1.25940919   0.02150917
7517.00   1.23983538   0.02140837
7518.00   1.24020815   0.02139335
7519.00   1.24670899   0.02142544
7520.00   1.23880994   0.02148632
7521.00   1.24319589   0.02179817
7522.00   1.26192379   0.02255977
7523.00   1.26760244   0.02322385
7524.00   1.27100873   0.02359216
7525.00   1.26751399   0.02356550
7526.00   1.24111390   0.02311976
7527.00   1.22684133   0.02238187
7528.00   1.23014450   0.02188299
7529.00   1.23075128   0.02174908
7530.00   1.21568966   0.02173853
7531.00   1.24432850   0.02188069
7532.00   1.26809144   0.02198437
7533.00   1.26059306   0.02181905
7534.00   1.24445200   0.02152537
7535.00   1.25727844   0.02144476
7536.00   1.26066184   0.02142750
7537.00   1.24715900   0.02134639
7538.00   1.23489642   0.02125523
7539.00   1.22479439   0.02126972
7540.00   1.24525881   0.02152098
7541.00   1.26246667   0.02156316
7542.00   1.25494266   0.02144865
7543.00   1.26512301   0.02145939
7544.00   1.27412486   0.02142749
7545.00   1.25069678   0.02131595
7546.00   1.24373674   0.02129312
7547.00   1.25281429   0.02132532
7548.00   1.24556983   0.02124938
7549.00   1.22860503   0.02118631
7550.00   1.23447311   0.02120530
7551.00   1.20782137   0.02102556
7552.00   1.22067678   0.02109718
7553.00   1.25170970   0.02133186
7554.00   1.24813366   0.02134269
7555.00   1.23306251   0.02137608
7556.00   1.23984921   0.02154642
7557.00   1.24384809   0.02164253
7558.00   1.24946260   0.02168924
7559.00   1.23492575   0.02168474
7560.00   1.23982954   0.02165374
7561.00   1.24024343   0.02151804
7562.00   1.23139369   0.02135593
7563.00   1.22205806   0.02125565
7564.00   1.21843338   0.02123120
7565.00   1.22635484   0.02130316
7566.00   1.24232769   0.02142247
7567.00   1.25449610   0.02152821
7568.00   1.25567770   0.02156685
7569.00   1.23707902   0.02176824
7570.00   1.22437680   0.02220643
7571.00   1.22299612   0.02265809
7572.00   1.22465956   0.02281598
7573.00   1.20506072   0.02268494
7574.00   1.20658255   0.02240152
7575.00   1.21682715   0.02199205
7576.00   1.23153710   0.02165279
7577.00   1.22954607   0.02145270
7578.00   1.22837067   0.02132253
7579.00   1.22265399   0.02125357
7580.00   1.23400140   0.02130033
7581.00   1.23827565   0.02127789
7582.00   1.22988439   0.02121049
7583.00   1.23038220   0.02127476
7584.00   1.24826002   0.02154249
7585.00   1.24273050   0.02174236
7586.00   1.21727133   0.02168835
7587.00   1.20523357   0.02166370
7588.00   1.21246886   0.02156982
7589.00   1.21686280   0.02138215
7590.00   1.21115720   0.02113770
7591.00   1.22500801   0.02106531
7592.00   1.23804617   0.02095204
7593.00   1.20605719   0.02067403
7594.00   1.15636802   0.02057506
7595.00   1.10857630   0.02122733
7596.00   1.02632463   0.02319899
7597.00   1.05720901   0.03036477
7598.00   1.16432548   0.03625753
7599.00   1.27631843   0.04054131
7600.00   1.27549219   0.04251507
7601.00   1.29727960   0.04520100
7602.00   1.26949799   0.04758433
7603.00   1.21223521   0.05043911
7604.00   1.18948126   0.05369023
7605.00   1.19342244   0.05634006
7606.00   1.24397945   0.05872191
7607.00   1.18838573   0.05767322
7608.00   1.20780277   0.05665831
7609.00   1.25477123   0.05548269
7610.00   1.29937482   0.05323933
7611.00   1.34082460   0.05132298
7612.00   1.31557536   0.04688302
7613.00   1.24704194   0.04106923
7614.00   1.21037793   0.03773370
7615.00   1.21138215   0.03488404
7616.00   1.17495155   0.03146822
7617.00   1.17032790   0.02912410
7618.00   1.21210098   0.02815297
7619.00   1.23286057   0.02485533
7620.00   1.20545816   0.02278403
7621.00   1.19788086   0.02285898
7622.00   1.22916389   0.02468172
7623.00   1.24426007   0.02701799
7624.00   1.24925756   0.02953409
7625.00   1.18537521   0.03027844
7626.00   1.16301918   0.03063153
7627.00   1.18666792   0.03117908
7628.00   1.17684972   0.03178853
7629.00   1.10721385   0.03208043
7630.00   1.12173486   0.03207769
7631.00   1.20990884   0.03257129
7632.00   1.25508237   0.03298199
7633.00   1.17018604   0.03227878
7634.00   1.18891716   0.03152939
7635.00   1.23873746   0.03094681
7636.00   1.23643970   0.03047066
7637.00   1.13672721   0.02986411
7638.00   1.13562894   0.03000688
7639.00   1.21624708   0.02957943
7640.00   1.24800575   0.02905600
7641.00   1.19079840   0.02881530
7642.00   1.12158895   0.02906861
7643.00   1.18071604   0.02841313
7644.00   1.20440602   0.02734595
7645.00   1.15766525   0.02639422
7646.00   1.04255199   0.02572988
7647.00   1.05438221   0.02579517
7648.00   1.17835903   0.02604941
7649.00   1.25141954   0.02607679
7650.00   1.20650125   0.02616656
7651.00   1.10989404   0.02668015
7652.00   1.13216221   0.02638027
7653.00   1.20180845   0.02542597
7654.00   1.20565987   0.02441862
7655.00   1.15182090   0.02423156
7656.00   1.12149668   0.02491067
7657.00   1.15760851   0.02499730
7658.00   1.18846607   0.02386437
7659.00   1.18363047   0.02286423
7660.00   1.16316295   0.02333663
7661.00   1.11971688   0.02426840
7662.00   1.14443600   0.02478788
7663.00   1.18200779   0.02444077
7664.00   1.20082259   0.02354660
7665.00   1.18376493   0.02304122
7666.00   1.15992737   0.02334637
7667.00   1.12896657   0.02318884
7668.00   1.14151478   0.02286901
7669.00   1.18641782   0.02245646
7670.00   1.17727852   0.02168557
7671.00   1.13069689   0.02140548
7672.00   1.11643100   0.02176944
7673.00   1.12362981   0.02216395
7674.00   1.14038658   0.02213802
7675.00   1.14122844   0.02141731
7676.00   1.13967967   0.02106969
7677.00   1.13241506   0.02122586
7678.00   1.12179089   0.02155047
7679.00   1.10520363   0.02159055
7680.00   1.10524094   0.02132157
7681.00   1.10819244   0.02099073
7682.00   1.11609960   0.02086240
7683.00   1.12151933   0.02108564
7684.00   1.10124946   0.02131410
7685.00   1.10325038   0.02144954
7686.00   1.10783839   0.02138321
7687.00   1.10985041   0.02119403
7688.00   1.10988522   0.02095367
7689.00   1.12042582   0.02102617
7690.00   1.12208033   0.02124853
7691.00   1.12523639   0.02147236
7692.00   1.12226117   0.02157223
7693.00   1.13054538   0.02151921
7694.00   1.13722062   0.02128062
7695.00   1.10987759   0.02096436
7696.00   1.09706104   0.02108553
7697.00   1.10169959   0.02148436
7698.00   1.09336102   0.02175590
7699.00   1.08331227   0.02174727
7700.00   1.10409057   0.02177401
7701.00   1.11774194   0.02164225
7702.00   1.09978735   0.02125301
7703.00   1.09950209   0.02099966
7704.00   1.09356236   0.02088984
7705.00   1.08468950   0.02081163
7706.00   1.08791089   0.02077658
7707.00   1.09424794   0.02071865
7708.00   1.08503222   0.02060080
7709.00   1.06401634   0.02075258
7710.00   1.06182396   0.02145354
7711.00   1.07143188   0.02241378
7712.00   1.08978415   0.02322203
7713.00   1.10112607   0.02380663
7714.00   1.09445655   0.02425006
7715.00   1.07620788   0.02443630
7716.00   1.07596767   0.02446685
7717.00   1.09622049   0.02443114
7718.00   1.08192241   0.02408458
7719.00   1.06535780   0.02340885
7720.00   1.07568204   0.02255028
7721.00   1.06703854   0.02154242
7722.00   1.06198192   0.02108714
7723.00   1.06102645   0.02111550
7724.00   1.05065978   0.02129931
7725.00   1.05581832   0.02155019
7726.00   1.08140683   0.02169816
7727.00   1.08103061   0.02149760
7728.00   1.06511390   0.02123905
7729.00   1.06252122   0.02102325
7730.00   1.07295322   0.02084872
7731.00   1.08221364   0.02081383
7732.00   1.07154608   0.02066094
7733.00   1.04667306   0.02056854
7734.00   1.04441404   0.02058942
7735.00   1.06065392   0.02071607
7736.00   1.05198669   0.02068455
7737.00   1.04406834   0.02059552
7738.00   1.04349518   0.02055864
7739.00   1.03842795   0.02050095
7740.00   1.04090750   0.02054825
7741.00   1.04727054   0.02060741
7742.00   1.04662848   0.02059075
7743.00   1.06097317   0.02066704
7744.00   1.05315554   0.02056757
7745.00   1.03998089   0.02044493
7746.00   1.03386438   0.02042320
7747.00   1.03061104   0.02094238
7748.00   1.03123343   0.02212800
7749.00   1.03359079   0.02379798
7750.00   1.02486944   0.02472098
7751.00   1.02087677   0.02508881
7752.00   1.01660824   0.02478802
7753.00   1.01460063   0.02382001
7754.00   1.04414332   0.02240166
7755.00   1.04802394   0.02135590
7756.00   1.03973413   0.02092430
7757.00   1.03450418   0.02108725
7758.00   1.03920388   0.02162344
7759.00   1.04194164   0.02202806
7760.00   1.04084897   0.02222162
7761.00   1.03669810   0.02215827
7762.00   1.02405691   0.02176626
7763.00   1.01247168   0.02115096
7764.00   0.99935794   0.02067943
7765.00   1.01582885   0.02060263
7766.00   1.03561532   0.02066981
7767.00   1.05475664   0.02077997
7768.00   1.03943110   0.02069018
7769.00   1.03445053   0.02064861
7770.00   1.01308823   0.02055262
7771.00   1.00541747   0.02062220
7772.00   1.02154112   0.02094894
7773.00   1.02811694   0.02110077
7774.00   1.00733960   0.02107327
7775.00   1.00635970   0.02096334
7776.00   1.01682711   0.02084606
7777.00   1.02088213   0.02071289
7778.00   1.02529597   0.02090008
7779.00   1.02917576   0.02123517
7780.00   1.02128851   0.02144519
7781.00   1.02325726   0.02152925
7782.00   1.04402113   0.02158260
7783.00   1.05513155   0.02135728
7784.00   1.04160261   0.02095205
7785.00   1.03348541   0.02071191
7786.00   1.04350424   0.02076530
7787.00   1.04239178   0.02076059
7788.00   1.03515959   0.02074785
7789.00   1.02510548   0.02066887
7790.00   1.01110339   0.02071605
7791.00   1.00507367   0.02124449
7792.00   1.02575147   0.02262377
7793.00   1.02374971   0.02368496
7794.00   1.01775932   0.02415190
7795.00   1.03320551   0.02409854
7796.00   1.04365444   0.02373666
7797.00   1.02368808   0.02252275
7798.00   1.01349866   0.02136872
7799.00   1.01648235   0.02075559
7800.00   1.03480387   0.02080423
7801.00   1.04118812   0.02078047
7802.00   1.03665471   0.02071330
7803.00   1.02040648   0.02056555
7804.00   1.02115750   0.02056798
7805.00   1.02575779   0.02064773
7806.00   1.02718782   0.02108131
7807.00   1.01727962   0.02158702
7808.00   1.01484108   0.02191890
7809.00   1.01511097   0.02195920
7810.00   1.02404690   0.02193473
7811.00   1.03864789   0.02165383
7812.00   1.02644813   0.02115596
7813.00   1.02438331   0.02079738
7814.00   1.03922117   0.02087973
7815.00   1.01117134   0.02072418
7816.00   1.02176106   0.02067593
7817.00   1.03584170   0.02071592
7818.00   1.03480458   0.02111597
7819.00   1.03829050   0.02223466
7820.00   1.00792003   0.02361442
7821.00   0.99171495   0.02439406
7822.00   1.00723207   0.02472740
7823.00   1.01145661   0.02450579
7824.00   0.98835003   0.02344912
7825.00   1.00127447   0.02205287
7826.00   1.02389479   0.02125609
7827.00   1.02614987   0.02094974
7828.00   1.02368331   0.02082018
7829.00   1.02138948   0.02071564
7830.00   1.01537895   0.02063937
7831.00   1.00954747   0.02055907
7832.00   1.02752960   0.02063195
7833.00   1.02294791   0.02061372
7834.00   1.01499343   0.02046679
7835.00   1.03300691   0.02050238
7836.00   1.04777360   0.02061254
7837.00   1.02999604   0.02056173
7838.00   1.01649654   0.02064676
7839.00   1.02118754   0.02112719
7840.00   1.01694262   0.02150075
7841.00   1.02337146   0.02177657
7842.00   1.02190208   0.02177053
7843.00   1.02058148   0.02170507
7844.00   1.00997019   0.02126729
7845.00   1.00880623   0.02082773
7846.00   1.01553786   0.02064410
7847.00   1.01864767   0.02077222
7848.00   1.01080739   0.02085800
7849.00   1.00349450   0.02096537
7850.00   1.01296604   0.02159639
7851.00   1.02855110   0.02284234
7852.00   1.03797567   0.02426595
7853.00   1.03639531   0.02487028
7854.00   1.03932738   0.02499564
7855.00   1.03683972   0.02454724
7856.00   1.02266312   0.02353232
7857.00   1.01301873   0.02236897
7858.00   1.01556695   0.02209487
7859.00   1.01863527   0.02236089
7860.00   1.01558161   0.02264486
7861.00   1.02503657   0.02261431
7862.00   1.03379869   0.02238893
7863.00   1.01502824   0.02176844
7864.00   1.00285459   0.02122452
7865.00   1.01291120   0.02110197
7866.00   1.04382539   0.02145844
7867.00   1.04662549   0.02176938
7868.00   1.04088330   0.02224454
7869.00   1.02029824   0.02273602
7870.00   1.01070702   0.02311686
7871.00   1.00602841   0.02307689
7872.00   1.00512934   0.02276505
7873.00   1.00260043   0.02219215
7874.00   1.01221299   0.02156925
7875.00   1.02362084   0.02120803
7876.00   1.01375699   0.02131260
7877.00   0.99972528   0.02152310
7878.00   0.99595094   0.02171966
7879.00   1.00363863   0.02193279
7880.00   1.00575924   0.02221161
7881.00   1.02029920   0.02227280
7882.00   1.01267433   0.02204140
7883.00   1.00804520   0.02172281
7884.00   1.01295900   0.02147719
7885.00   1.03696561   0.02125881
7886.00   1.04824615   0.02129129
7887.00   1.05088401   0.02172145
7888.00   1.02826905   0.02235911
7889.00   1.02434170   0.02303610
7890.00   1.02441216   0.02323684
7891.00   1.03110194   0.02321224
7892.00   1.01989031   0.02275874
7893.00   1.01195991   0.02199904
7894.00   1.00707650   0.02126472
7895.00   1.02656114   0.02119842
7896.00   1.01698339   0.02121502
7897.00   1.01420403   0.02129751
7898.00   1.01605654   0.02115997
7899.00   1.03093386   0.02096648
7900.00   1.01585901   0.02067423
7901.00   1.01504731   0.02070235
7902.00   1.01665807   0.02083745
7903.00   1.02776527   0.02101249
7904.00   1.02630830   0.02109098
7905.00   1.02718651   0.02103793
7906.00   1.02243578   0.02086057
7907.00   1.00611413   0.02061776
7908.00   1.00160408   0.02062112
7909.00   1.01093459   0.02089262
7910.00   1.00936866   0.02166478
7911.00   1.00890017   0.02326177
7912.00   0.99388117   0.02523068
7913.00   0.98284256   0.02629738
7914.00   1.01407528   0.02659478
7915.00   1.01763046   0.02615496
7916.00   1.00659931   0.02507327
7917.00   0.98439312   0.02323832
7918.00   0.99195421   0.02246502
7919.00   1.00044799   0.02273377
7920.00   1.00311196   0.02333703
7921.00   1.00121510   0.02363894
7922.00   1.00560260   0.02354571
7923.00   1.00441074   0.02314200
7924.00   1.00370347   0.02237224
7925.00   1.02552867   0.02161659
7926.00   1.03038669   0.02117248
7927.00   1.03950071   0.02106031
7928.00   1.03637731   0.02125630
7929.00   1.01700807   0.02176591
7930.00   0.99813652   0.02232030
7931.00   1.02727735   0.02268950
7932.00   1.01171315   0.02256161
7933.00   0.99460763   0.02217862
7934.00   0.97944885   0.02161554
7935.00   0.99656308   0.02111157
7936.00   1.01717067   0.02091089
7937.00   1.02721059   0.02084788
7938.00   1.02334678   0.02079815
7939.00   1.02457559   0.02076205
7940.00   1.01606333   0.02067997
7941.00   1.02507997   0.02072906
7942.00   1.03378558   0.02077777
7943.00   0.99952143   0.02063450
7944.00   0.97923601   0.02055749
7945.00   1.00568199   0.02071090
7946.00   1.02410424   0.02102835
7947.00   1.01810575   0.02136474
7948.00   1.01257181   0.02170957
7949.00   1.02379715   0.02200988
7950.00   1.02283239   0.02210077
7951.00   1.03234506   0.02188275
7952.00   1.03713346   0.02146964
7953.00   1.04151785   0.02110737
7954.00   1.02728391   0.02081615
7955.00   1.00244248   0.02060192
7956.00   1.00383520   0.02047857
7957.00   1.01731920   0.02045496
7958.00   1.02858579   0.02052607
7959.00   1.02476168   0.02063891
7960.00   1.01797521   0.02062476
7961.00   1.01135969   0.02106209
7962.00   0.99378204   0.02230227
7963.00   0.99060297   0.02413696
7964.00   0.99547732   0.02528707
7965.00   0.99898255   0.02558183
7966.00   1.00282383   0.02521299
7967.00   1.01352119   0.02427190
7968.00   1.01619065   0.02279528
7969.00   1.01196778   0.02168935
7970.00   1.01366329   0.02120405
7971.00   1.01627231   0.02107199
7972.00   1.02985752   0.02102692
7973.00   1.02856326   0.02089121
7974.00   1.01275277   0.02077370
7975.00   0.99084699   0.02076880
7976.00   1.00030029   0.02107920
7977.00   1.03065848   0.02162573
7978.00   1.04999542   0.02226792
7979.00   1.03164411   0.02257437
7980.00   1.00727797   0.02256060
7981.00   1.00653994   0.02235063
7982.00   1.01159322   0.02192406
7983.00   1.00893557   0.02122973
7984.00   1.00848436   0.02076818
7985.00   1.00929523   0.02065281
7986.00   1.02193987   0.02082090
7987.00   1.03663850   0.02092027
7988.00   1.02639556   0.02076801
7989.00   1.00328112   0.02067624
7990.00   1.01875401   0.02142181
7991.00   1.04563022   0.02296132
7992.00   1.02762651   0.02444072
7993.00   1.02031887   0.02517726
7994.00   1.04509878   0.02546579
7995.00   1.04506683   0.02495515
7996.00   1.04118776   0.02377315
7997.00   1.04057443   0.02227525
7998.00   1.01478243   0.02125597
7999.00   0.98743820   0.02082733
8000.00   1.00085092   0.02094810
8001.00   1.01585007   0.02100713
8002.00   1.01914823   0.02095302
8003.00   1.00991762   0.02076437
8004.00   1.02469671   0.02072784
8005.00   1.03484154   0.02068840
8006.00   1.02019799   0.02063544
8007.00   1.01305389   0.02069694
8008.00   1.01562011   0.02079817
8009.00   1.01760757   0.02080911
8010.00   1.00514567   0.02065345
8011.00   1.00359559   0.02067998
8012.00   1.01480031   0.02108159
8013.00   1.01712871   0.02154161
8014.00   1.00582576   0.02177992
8015.00   1.00672293   0.02177674
8016.00   1.03365672   0.02180422
8017.00   1.03566837   0.02143041
8018.00   1.01978385   0.02096218
8019.00   1.02664971   0.02086017
8020.00   1.01683342   0.02069523
8021.00   1.00899792   0.02053915
8022.00   1.00532079   0.02101365
8023.00   1.07636225   0.02353646
%8024.00   1.37741208   0.02969937
%8025.00   1.31802559   0.03185947
%8026.00   1.11922324   0.03015412
%8027.00   0.97542024   0.02589268
8028.00   1.00064528   0.02339939
8029.00   1.00163710   0.02210881
8030.00   1.00426853   0.02146130
8031.00   1.01425135   0.02112532
8032.00   1.01454020   0.02091187
8033.00   1.02261162   0.02079616
8034.00   1.01733327   0.02066048
8035.00   1.00132298   0.02049296
8036.00   0.97984409   0.02035744
8037.00   0.98528481   0.02039381
8038.00   0.99031663   0.02044151
8039.00   1.00401342   0.02052540
8040.00   1.00909698   0.02046805
8041.00   1.01313293   0.02035100
8042.00   1.01690936   0.02034774
8043.00   1.01247692   0.02037789
8044.00   1.00167048   0.02035414
8045.00   1.00112581   0.02040981
8046.00   0.99639106   0.02043851
8047.00   1.00278342   0.02047895
8048.00   1.00873852   0.02046822
8049.00   1.00433218   0.02057778
8050.00   0.99373937   0.02066850
8051.00   0.97966421   0.02075131
8052.00   0.97355974   0.02076573
8053.00   0.97473979   0.02084346
8054.00   0.99219388   0.02081544
8055.00   0.99645770   0.02062580
8056.00   0.97864282   0.02027326
8057.00   0.97411609   0.02008678
8058.00   0.97713780   0.02007318
8059.00   0.98076332   0.02044676
8060.00   0.98406196   0.02094016
8061.00   0.99481702   0.02153148
8062.00   0.98481870   0.02177597
8063.00   0.97119808   0.02170059
8064.00   0.96105063   0.02143663
8065.00   0.96657264   0.02108085
8066.00   0.96728259   0.02054045
8067.00   0.98355657   0.02033100
8068.00   0.97693872   0.02014661
8069.00   0.97533238   0.02008623
8070.00   0.97472495   0.02009006
8071.00   0.96808875   0.02010122
8072.00   0.97033036   0.02002332
8073.00   0.96357322   0.01988684
8074.00   0.95612812   0.01981764
8075.00   0.97032726   0.01998322
8076.00   0.97498882   0.02006767
8077.00   0.97088808   0.02001477
8078.00   0.96772397   0.01995077
8079.00   0.97181058   0.01996743
8080.00   0.96197367   0.01985843
8081.00   0.96878642   0.01988167
8082.00   0.97193384   0.01991641
8083.00   0.96459365   0.01994011
8084.00   0.96707916   0.02004986
8085.00   0.97774351   0.02023371
8086.00   0.95971751   0.02018425
8087.00   0.95803750   0.02014611
8088.00   0.96933872   0.02010676
8089.00   0.96708322   0.02000718
8090.00   0.95174634   0.01986240
8091.00   0.94121504   0.01979095
8092.00   0.94552684   0.01993329
8093.00   0.94796908   0.02010361
8094.00   0.94061726   0.02010282
8095.00   0.94097972   0.02004718
8096.00   0.95034230   0.02002363
8097.00   0.95536435   0.02000538
8098.00   0.95989293   0.02003617
8099.00   0.95536202   0.02006897
8100.00   0.94545734   0.02020187
8101.00   0.94637710   0.02047180
8102.00   0.95339882   0.02071187
8103.00   0.95182002   0.02073412
8104.00   0.94845313   0.02064272
8105.00   0.94902897   0.02038347
8106.00   0.95234108   0.02013279
8107.00   0.96009761   0.02005763
8108.00   0.93958867   0.01996473
8109.00   0.92793751   0.01991029
8110.00   0.93286180   0.01991674
8111.00   0.94138837   0.01998668
8112.00   0.93877053   0.02002615
8113.00   0.95449841   0.02032787
8114.00   0.95788449   0.02057858
8115.00   0.94085640   0.02051131
8116.00   0.92775595   0.02027696
8117.00   0.92606914   0.01998739
8118.00   0.93296492   0.01983899
8119.00   0.94871414   0.01989184
8120.00   0.95112765   0.01995518
8121.00   0.92896855   0.01989773
8122.00   0.91479182   0.01991691
8123.00   0.90962189   0.02002051
8124.00   0.91274381   0.02006660
8125.00   0.92808342   0.02018158
8126.00   0.93775380   0.02027425
8127.00   0.92611545   0.02011373
8128.00   0.91831750   0.01991038
8129.00   0.92959565   0.01993869
8130.00   0.94144571   0.02012831
8131.00   0.93232733   0.02025092
8132.00   0.91346776   0.02031397
8133.00   0.92613369   0.02053928
8134.00   0.93989706   0.02080456
8135.00   0.92293584   0.02106280
8136.00   0.89109850   0.02132024
8137.00   0.89782643   0.02129318
8138.00   0.91393000   0.02096567
8139.00   0.93961203   0.02071261
8140.00   0.94478875   0.02063759
8141.00   0.91118890   0.02071021
8142.00   0.88801348   0.02088898
8143.00   0.90094531   0.02111822
8144.00   0.91966128   0.02108569
8145.00   0.92537272   0.02090987
8146.00   0.92009479   0.02074539
8147.00   0.90618908   0.02080436
8148.00   0.89467210   0.02108749
8149.00   0.89973938   0.02158949
8150.00   0.91659087   0.02188300
8151.00   0.91146541   0.02139639
8152.00   0.91409361   0.02099025
8153.00   0.91095537   0.02085541
8154.00   0.89836359   0.02112567
8155.00   0.89288688   0.02150362
8156.00   0.90398836   0.02152213
8157.00   0.91259897   0.02122641
8158.00   0.91856742   0.02086978
8159.00   0.92888999   0.02075806
8160.00   0.92287421   0.02052769
8161.00   0.91473484   0.02056799
8162.00   0.88977695   0.02076636
8163.00   0.87407017   0.02148089
8164.00   0.87914813   0.02278787
8165.00   0.88593358   0.02305626
8166.00   0.87629092   0.02222340
8167.00   0.87683988   0.02103771
8168.00   0.89140093   0.02050366
8169.00   0.91582263   0.02133880
8170.00   0.91961670   0.02243541
8171.00   0.89506280   0.02250375
8172.00   0.89380693   0.02212288
8173.00   0.93631256   0.02190782
8174.00   0.93449676   0.02096395
8175.00   0.92820483   0.02067688
8176.00   0.91710234   0.02084445
8177.00   0.90047634   0.02134890
8178.00   0.89241791   0.02235283
8179.00   0.89571136   0.02439921
8180.00   0.91173989   0.02539020
8181.00   0.92976177   0.02576505
8182.00   0.94097424   0.02595378
8183.00   0.90596426   0.02597646
8184.00   0.89003241   0.02552975
8185.00   0.89921176   0.02511229
8186.00   0.93944323   0.02472233
8187.00   0.93621981   0.02414850
8188.00   0.90237778   0.02364937
8189.00   0.89969665   0.02383504
8190.00   0.90095335   0.02410337
8191.00   0.87793064   0.02406614
8192.00   0.88850760   0.02449393
8193.00   0.89670765   0.02619662
8194.00   0.88647717   0.02722896
8195.00   0.87620604   0.02739914
8196.00   0.88676542   0.02692137
8197.00   0.89098251   0.02599499
8198.00   0.86453867   0.02476795
8199.00   0.87223399   0.02439705
8200.00   0.88838279   0.02449996
8201.00   0.88916904   0.02427081
8202.00   0.86432290   0.02346838
8203.00   0.86844134   0.02314474
8204.00   0.90126735   0.02264491
8205.00   0.91764438   0.02194221
8206.00   0.89061403   0.02143585
8207.00   0.89866149   0.02121023
8208.00   0.89592886   0.02092246
8209.00   0.87838829   0.02061266
8210.00   0.87252903   0.02054015
8211.00   0.89014679   0.02073326
8212.00   0.91414368   0.02104271
8213.00   0.91483474   0.02108953
8214.00   0.89089787   0.02080085
8215.00   0.89144981   0.02049803
8216.00   0.90557206   0.02034225
8217.00   0.92146957   0.02044428
8218.00   0.90697950   0.02051557
8219.00   0.90473562   0.02061261
8220.00   0.90310168   0.02048747
8221.00   0.89354426   0.02038583
8222.00   0.88462722   0.02025466
8223.00   0.89011759   0.02029021
8224.00   0.89498675   0.02040498
8225.00   0.90383899   0.02056305
8226.00   0.90463519   0.02066461
8227.00   0.88153905   0.02091713
8228.00   0.89356077   0.02282169
8229.00   0.87963748   0.02525310
8230.00   0.84834826   0.02522154
8231.00   0.87357759   0.02495546
8232.00   0.87298656   0.02427518
8233.00   0.85830128   0.02338988
8234.00   0.86443388   0.02211089
8235.00   0.86642522   0.02146404
8236.00   0.86595094   0.02087733
8237.00   0.87021518   0.02048658
8238.00   0.89043832   0.02044832
8239.00   0.89116174   0.02025476
8240.00   0.90512037   0.02028813
8241.00   0.88690013   0.02003964
8242.00   0.88240492   0.01998556
8243.00   0.88681573   0.02037143
8244.00   0.88388884   0.02087350
8245.00   0.88038874   0.02094944
8246.00   0.88668740   0.02065268
8247.00   0.91281122   0.02034800
8248.00   0.91954088   0.02006877
8249.00   0.90120435   0.01975702
8250.00   0.89454949   0.01962906
8251.00   0.89297807   0.01954411
8252.00   0.89572155   0.01953412
8253.00   0.88849670   0.01964520
8254.00   0.89815944   0.01976055
8255.00   0.90385020   0.01988877
8256.00   0.88989568   0.01997761
8257.00   0.87828255   0.02012032
8258.00   0.88039917   0.02041925
8259.00   0.88978267   0.02053966
8260.00   0.90094602   0.02050785
8261.00   0.89927208   0.02027652
8262.00   0.87927341   0.01991741
8263.00   0.88955808   0.01991990
8264.00   0.87918079   0.01996965
8265.00   0.87140846   0.01997981
8266.00   0.87617373   0.01987571
8267.00   0.90294874   0.01985260
8268.00   0.90683454   0.01970782
8269.00   0.90171891   0.01960137
8270.00   0.88586003   0.01945987
8271.00   0.86954141   0.01930989
8272.00   0.86546022   0.01934661
8273.00   0.87253785   0.01983532
8274.00   0.87398225   0.02039062
8275.00   0.88935542   0.02108386
8276.00   0.89231753   0.02167252
8277.00   0.89468122   0.02201915
8278.00   0.87376392   0.02215576
8279.00   0.87558889   0.02263344
8280.00   0.89295125   0.02338787
8281.00   0.90865123   0.02387349
8282.00   0.91138816   0.02406150
8283.00   0.89090681   0.02363740
8284.00   0.86398458   0.02269706
8285.00   0.87751341   0.02176106
8286.00   0.89436972   0.02196658
8287.00   0.91312730   0.02304184
8288.00   0.90771604   0.02466270
8289.00   0.88887835   0.02586991
8290.00   0.89059907   0.02568407
8291.00   0.89290798   0.02411688
8292.00   0.89025843   0.02213451
8293.00   0.89555264   0.02099000
8294.00   0.89964616   0.02135279
8295.00   0.88890338   0.02232812
8296.00   0.85510969   0.02370814
8297.00   0.86411691   0.02473246
8298.00   0.90743130   0.02520261
8299.00   0.90238923   0.02476858
8300.00   0.88677537   0.02456053
8301.00   0.86660755   0.02397822
8302.00   0.83405077   0.02266519
8303.00   0.83621919   0.02112941
8304.00   0.88917518   0.02087771
8305.00   0.87272984   0.02095676
8306.00   0.84852052   0.02103806
8307.00   0.86512733   0.02111397
8308.00   0.89524740   0.02107586
8309.00   0.89215493   0.02102676
8310.00   0.89213580   0.02100305
8311.00   0.89395118   0.02118005
8312.00   0.89073348   0.02141092
8313.00   0.87321162   0.02129533
8314.00   0.89359593   0.02081641
8315.00   0.91259462   0.02045116
8316.00   0.88480997   0.02015283
8317.00   0.86620313   0.02025815
8318.00   0.88607407   0.02071524
8319.00   0.89772439   0.02091271
8320.00   0.90845203   0.02103341
8321.00   0.92679775   0.02122927
8322.00   0.91862726   0.02135054
8323.00   0.89599663   0.02129351
8324.00   0.92404735   0.02119666
8325.00   0.92277181   0.02058173
8326.00   0.90975046   0.01988103
8327.00   0.90713203   0.01975640
8328.00   0.89798963   0.01978857
8329.00   0.88856196   0.01989352
8330.00   0.89145792   0.02003856
8331.00   0.90012157   0.02016831
8332.00   0.89194316   0.02005243
8333.00   0.88629603   0.01994909
8334.00   0.88633484   0.02010967
8335.00   0.88385731   0.02019198
8336.00   0.87774920   0.02013754
8337.00   0.89901286   0.02007514
8338.00   0.90608180   0.02021436
8339.00   0.91465461   0.02056510
8340.00   0.90595567   0.02101487
8341.00   0.88702965   0.02220012
8342.00   0.88556397   0.02514580
8343.00   0.91013449   0.02794236
8344.00   0.91502142   0.02952252
8345.00   0.90750813   0.02957315
8346.00   0.87643015   0.02869322
8347.00   0.84080768   0.02637843
8348.00   0.86844528   0.02403834
8349.00   0.90424132   0.02248510
8350.00   0.89736140   0.02248231
8351.00   0.89738488   0.02320574
8352.00   0.91486108   0.02376867
8353.00   0.90678608   0.02385331
8354.00   0.89211988   0.02355509
8355.00   0.87459362   0.02285018
8356.00   0.88425869   0.02187037
8357.00   0.90940374   0.02126074
8358.00   0.89934433   0.02079384
8359.00   0.88538027   0.02048396
8360.00   0.90298539   0.02040627
8361.00   0.88067210   0.02023652
8362.00   0.88869804   0.02065369
8363.00   0.89605117   0.02128029
8364.00   0.87204897   0.02141914
8365.00   0.87905836   0.02128410
8366.00   0.89629662   0.02115167
8367.00   0.89094591   0.02093227
8368.00   0.88965464   0.02066122
8369.00   0.89214993   0.02032475
8370.00   0.88349897   0.02002077
8371.00   0.89275795   0.01987160
8372.00   0.91207939   0.01991086
8373.00   0.90381193   0.01987454
8374.00   0.89110655   0.01988675
8375.00   0.87795019   0.01989203
8376.00   0.87285352   0.01999559
8377.00   0.88896602   0.02029320
8378.00   0.90384239   0.02053803
8379.00   0.89817238   0.02078351
8380.00   0.89083803   0.02140744
8381.00   0.89052057   0.02197099
8382.00   0.89131856   0.02222291
8383.00   0.88199526   0.02212230
8384.00   0.85828888   0.02181752
8385.00   0.86650586   0.02132658
8386.00   0.87519777   0.02078821
8387.00   0.87331438   0.02031288
8388.00   0.87245870   0.02009805
8389.00   0.87650967   0.02010871
8390.00   0.87763304   0.02002877
8391.00   0.87158746   0.01987261
8392.00   0.87473845   0.01979572
8393.00   0.88216341   0.01984263
8394.00   0.87428921   0.01966874
8395.00   0.86571026   0.01997322
8396.00   0.86498368   0.02125331
8397.00   0.88970023   0.02381067
8398.00   0.90257144   0.02601852
8399.00   0.86129391   0.02694274
8400.00   0.83967876   0.02697765
8401.00   0.85514677   0.02631153
8402.00   0.88356376   0.02442289
8403.00   0.88399428   0.02239851
8404.00   0.87084901   0.02117382
8405.00   0.87013614   0.02069771
8406.00   0.88324761   0.02042126
8407.00   0.88370931   0.02020399
8408.00   0.86823893   0.01981784
8409.00   0.85275102   0.01949138
8410.00   0.83770859   0.01931805
8411.00   0.84283924   0.01944285
8412.00   0.85392839   0.02004519
8413.00   0.85619211   0.02095991
8414.00   0.86933088   0.02184069
8415.00   0.86741328   0.02224595
8416.00   0.83589327   0.02216290
8417.00   0.83516526   0.02185712
8418.00   0.84141380   0.02123028
8419.00   0.84071887   0.02043235
8420.00   0.85592896   0.02001587
8421.00   0.86740965   0.01995912
8422.00   0.86650479   0.01993624
8423.00   0.87104738   0.01996852
8424.00   0.86661088   0.01995418
8425.00   0.85887027   0.01995261
8426.00   0.85622299   0.02024379
8427.00   0.86075395   0.02169878
8428.00   0.86471379   0.02401651
8429.00   0.85612965   0.02622174
8430.00   0.84624875   0.02717461
8431.00   0.83614695   0.02738243
8432.00   0.82969594   0.02651671
8433.00   0.84065831   0.02478144
8434.00   0.85802114   0.02269845
8435.00   0.85657644   0.02135618
8436.00   0.84641439   0.02059671
8437.00   0.83872426   0.02015371
8438.00   0.84127170   0.01982678
8439.00   0.84785724   0.01963003
8440.00   0.83054805   0.01942694
8441.00   0.82843292   0.01943029
8442.00   0.83290434   0.01948701
8443.00   0.83468902   0.01950037
8444.00   0.83523536   0.01952515
8445.00   0.86469126   0.01977638
8446.00   0.86064792   0.01978442
8447.00   0.82918161   0.01957611
8448.00   0.82712746   0.01965165
8449.00   0.85109723   0.02014495
8450.00   0.84091163   0.02081367
8451.00   0.83124709   0.02139084
8452.00   0.84995615   0.02187137
8453.00   0.86612666   0.02207553
8454.00   0.85680830   0.02187583
8455.00   0.85037398   0.02126618
8456.00   0.84623271   0.02055942
8457.00   0.84221399   0.02004820
8458.00   0.84225929   0.01978321
8459.00   0.84131223   0.01963141
8460.00   0.84927821   0.01963584
8461.00   0.84583896   0.01980489
8462.00   0.83453119   0.02055658
8463.00   0.82253134   0.02232668
8464.00   0.82989049   0.02399902
8465.00   0.82666898   0.02499321
8466.00   0.82817113   0.02526676
8467.00   0.82651997   0.02485705
8468.00   0.85170710   0.02360312
8469.00   0.83858877   0.02206159
8470.00   0.81246853   0.02077465
8471.00   0.80352473   0.02014493
8472.00   0.82419300   0.01993562
8473.00   0.83601356   0.01986064
8474.00   0.83560932   0.01978286
8475.00   0.83117092   0.01974040
8476.00   0.82716823   0.01965092
8477.00   0.83210349   0.01963398
8478.00   0.84157330   0.01959397
8479.00   0.83071929   0.01946302
8480.00   0.81720424   0.01936290
8481.00   0.81729627   0.01933993
8482.00   0.83754778   0.01941650
8483.00   0.83915031   0.01947882
8484.00   0.84381419   0.01951085
8485.00   0.84061849   0.01949031
8486.00   0.83153021   0.01938676
8487.00   0.79912132   0.01915024
8488.00   0.78496444   0.01897792
8489.00   0.79338849   0.01903851
8490.00   0.82274312   0.01941643
8491.00   0.83692193   0.02012285
8492.00   0.83915544   0.02066360
8493.00   0.81583381   0.02078547
8494.00   0.79948616   0.02074207
8495.00   0.80481011   0.02069680
8496.00   0.81622481   0.02045907
8497.00   0.80120933   0.01996414
8498.00   0.79309189   0.01954195
8499.00   0.81085104   0.01948871
8500.00   0.82935667   0.01960841
8501.00   0.83232772   0.01988083
8502.00   0.81921005   0.02053382
8503.00   0.80915183   0.02136467
8504.00   0.80966103   0.02201618
8505.00   0.82027274   0.02238783
8506.00   0.83005339   0.02246471
8507.00   0.81852198   0.02189999
8508.00   0.81556559   0.02104296
8509.00   0.81788027   0.02037812
8510.00   0.82621431   0.01995590
8511.00   0.81484884   0.01962110
8512.00   0.78868365   0.01926608
8513.00   0.79139531   0.01910471
8514.00   0.81114268   0.01917161
8515.00   0.81811333   0.01914329
8516.00   0.81220150   0.01908748
8517.00   0.80757582   0.01912081
8518.00   0.81544518   0.01925005
8519.00   0.80711544   0.01924809
8520.00   0.79543298   0.01914926
8521.00   0.79978406   0.01925080
8522.00   0.81068444   0.01939206
8523.00   0.82682097   0.01941642
8524.00   0.81626201   0.01921666
8525.00   0.80519998   0.01910424
8526.00   0.80976605   0.01909998
8527.00   0.83025563   0.01921348
8528.00   0.83132136   0.01919835
8529.00   0.82708871   0.01916003
8530.00   0.81285357   0.01907674
8531.00   0.81245637   0.01908848
8532.00   0.79812068   0.01899941
8533.00   0.80153823   0.01891620
8534.00   0.79516256   0.01884341
8535.00   0.77533710   0.01880381
8536.00   0.77504778   0.01900937
8537.00   0.78683710   0.01925652
8538.00   0.80849361   0.01951826
8539.00   0.80836445   0.01957319
8540.00   0.79650891   0.01945673
8541.00   0.79965842   0.01934933
8542.00   0.81382477   0.01923595
8543.00   0.80039680   0.01901280
8544.00   0.80024159   0.01902213
8545.00   0.80524647   0.01916743
8546.00   0.81394655   0.01950788
8547.00   0.80482233   0.01987568
8548.00   0.79693139   0.02015581
8549.00   0.78507853   0.02018922
8550.00   0.79295063   0.02019437
8551.00   0.79950213   0.02003860
8552.00   0.81524622   0.01988120
8553.00   0.81210959   0.01959924
8554.00   0.79945177   0.01930885
8555.00   0.79488188   0.01910928
8556.00   0.80295569   0.01902491
8557.00   0.79859948   0.01893695
8558.00   0.80448842   0.01900850
8559.00   0.81941092   0.01913096
8560.00   0.81003904   0.01898613
8561.00   0.79662806   0.01882822
8562.00   0.79040009   0.01879071
8563.00   0.79474592   0.01885950
8564.00   0.79819328   0.01889506
8565.00   0.79610300   0.01889583
8566.00   0.79201418   0.01883080
8567.00   0.79635465   0.01886385
8568.00   0.79819554   0.01890366
8569.00   0.79730487   0.01890900
8570.00   0.81125605   0.01899671
8571.00   0.81304228   0.01902209
8572.00   0.79663265   0.01889724
8573.00   0.77376801   0.01871990
8574.00   0.78029108   0.01876528
8575.00   0.78473091   0.01881639
8576.00   0.80070138   0.01898712
8577.00   0.81654316   0.01910925
8578.00   0.81838745   0.01908044
8579.00   0.79872376   0.01891518
8580.00   0.78619474   0.01881755
8581.00   0.78351474   0.01875255
8582.00   0.78800607   0.01876391
8583.00   0.79837549   0.01881546
8584.00   0.79228377   0.01878196
8585.00   0.79013598   0.01886757
8586.00   0.79864335   0.01906074
8587.00   0.80552214   0.01916455
8588.00   0.79858959   0.01911864
8589.00   0.78187788   0.01906880
8590.00   0.77637649   0.01901051
8591.00   0.79701746   0.01911733
8592.00   0.80933356   0.01910861
8593.00   0.78111243   0.01883818
8594.00   0.77291298   0.01879666
8595.00   0.76733017   0.01891124
8596.00   0.78273749   0.01915139
8597.00   0.78762865   0.01921239
8598.00   0.77906686   0.01919768
8599.00   0.77646339   0.01916535
8600.00   0.77497858   0.01902737
8601.00   0.77554101   0.01891422
8602.00   0.76700497   0.01874600
8603.00   0.75936908   0.01862088
8604.00   0.77171534   0.01867094
8605.00   0.78712237   0.01874182
8606.00   0.78583819   0.01868392
8607.00   0.77941942   0.01867750
8608.00   0.77819866   0.01874233
8609.00   0.79358685   0.01888696
8610.00   0.79246020   0.01894253
8611.00   0.77913499   0.01888240
8612.00   0.77753186   0.01891743
8613.00   0.78484249   0.01912306
8614.00   0.78974885   0.01931058
8615.00   0.78675032   0.01944145
8616.00   0.77667105   0.01950523
8617.00   0.77950406   0.01960516
8618.00   0.77414852   0.01981512
8619.00   0.76564175   0.01999222
8620.00   0.77405095   0.02026746
8621.00   0.78030622   0.02047738
8622.00   0.77083325   0.02061808
8623.00   0.76181388   0.02070567
8624.00   0.75390172   0.02087709
8625.00   0.76652527   0.02119490
8626.00   0.77084327   0.02147175
8627.00   0.76119649   0.02149006
8628.00   0.76850855   0.02165425
8629.00   0.77471954   0.02177621
8630.00   0.76340449   0.02180895
8631.00   0.76099157   0.02175264
8632.00   0.77144039   0.02181268
8633.00   0.76500630   0.02175464
8634.00   0.74517041   0.02152544
8635.00   0.75242501   0.02141202
8636.00   0.77030963   0.02131477
8637.00   0.77618647   0.02115230
8638.00   0.77519345   0.02098460
8639.00   0.79472768   0.02090816
8640.00   0.79160035   0.02063506
8641.00   0.77216101   0.02022082
8642.00   0.77057987   0.02000821
8643.00   0.77526253   0.01983882
8644.00   0.76759833   0.01964577
8645.00   0.76210672   0.01951178
8646.00   0.76639926   0.01966198
8647.00   0.76481783   0.01987294
8648.00   0.77096063   0.02025416
8649.00   0.78473461   0.02065271
8650.00   0.76779592   0.02080903
8651.00   0.75746852   0.02099622
8652.00   0.76848686   0.02129718
8653.00   0.76447129   0.02144139
8654.00   0.76958930   0.02158623
8655.00   0.77623624   0.02173198
8656.00   0.77296096   0.02178569
8657.00   0.75473654   0.02176490
8658.00   0.75866652   0.02178201
8659.00   0.77124536   0.02181945
8660.00   0.76705635   0.02173566
8661.00   0.78009909   0.02175468
8662.00   0.78378999   0.02172581
8663.00   0.76819915   0.02158266
8664.00   0.74743390   0.02142231
8665.00   0.75413835   0.02141097
8666.00   0.77064002   0.02147657
8667.00   0.75612259   0.02130317
8668.00   0.74924469   0.02127413
8669.00   0.75006342   0.02121970
8670.00   0.76304221   0.02112681
8671.00   0.76883864   0.02092817
8672.00   0.76808947   0.02077644
8673.00   0.75794363   0.02060524
8674.00   0.76006609   0.02051596
8675.00   0.75464487   0.02039990
8676.00   0.74379230   0.02023846
8677.00   0.73667085   0.02007326
8678.00   0.75209701   0.02012591
8679.00   0.75632668   0.02010491
8680.00   0.75610155   0.02000408
8681.00   0.74083269   0.01976728
8682.00   0.73672450   0.01960295
8683.00   0.75626302   0.01962671
8684.00   0.75377691   0.01956972
8685.00   0.76075327   0.01954720
8686.00   0.75521100   0.01945306
8687.00   0.75538546   0.01941418
8688.00   0.74412608   0.01922756
8689.00   0.74546707   0.01913004
8690.00   0.76162761   0.01917066
8691.00   0.76565742   0.01920355
8692.00   0.74021894   0.01902394
8693.00   0.74632251   0.01909182
8694.00   0.74935484   0.01907404
8695.00   0.73650908   0.01894724
8696.00   0.73046833   0.01892042
8697.00   0.74090695   0.01905949
8698.00   0.73987269   0.01910105
8699.00   0.74739575   0.01914917
8700.00   0.73748910   0.01903308
8701.00   0.72485417   0.01893473
8702.00   0.72302473   0.01898744
8703.00   0.73252296   0.01915823
8704.00   0.73209399   0.01914428
8705.00   0.72836250   0.01904426
8706.00   0.72739947   0.01904156
8707.00   0.72830468   0.01915147
8708.00   0.72782576   0.01924049
8709.00   0.73853630   0.01924068
8710.00   0.74276710   0.01920386
8711.00   0.74057120   0.01920649
8712.00   0.74924594   0.01925170
8713.00   0.75356543   0.01923277
8714.00   0.74446797   0.01920586
8715.00   0.74561399   0.01920278
8716.00   0.72305542   0.01906865
8717.00   0.71304762   0.01896353
8718.00   0.71964967   0.01897204
8719.00   0.72319424   0.01905140
8720.00   0.72597921   0.01908975
8721.00   0.72464466   0.01914222
8722.00   0.72745287   0.01914798
8723.00   0.73822087   0.01918278
8724.00   0.75287199   0.01934130
8725.00   0.74365067   0.01932855
8726.00   0.73316443   0.01928725
8727.00   0.72032535   0.01919740
8728.00   0.72638333   0.01926306
8729.00   0.71675110   0.01919015
8730.00   0.73714411   0.01934080
8731.00   0.74271667   0.01939690
8732.00   0.73443937   0.01933080
8733.00   0.73227108   0.01933509
8734.00   0.73130989   0.01938953
8735.00   0.72135371   0.01931638
8736.00   0.72771770   0.01931895
8737.00   0.73292577   0.01941861
8738.00   0.73988271   0.01954580
8739.00   0.73356104   0.01952683
8740.00   0.71597737   0.01942621
8741.00   0.73366094   0.01956286
8742.00   0.74486351   0.01968539
8743.00   0.73419589   0.01964360
8744.00   0.72856820   0.01959224
8745.00   0.73892021   0.01965595
8746.00   0.74929774   0.01972842
8747.00   0.73570883   0.01961729
8748.00   0.72262311   0.01956229
8749.00   0.71491277   0.01959075
8750.00   0.72197562   0.01965727
8751.00   0.72485656   0.01963213
8752.00   0.73373622   0.01964755
8753.00   0.73294103   0.01960675
8754.00   0.72104049   0.01967074
8755.00   0.71850634   0.01993333
8756.00   0.73353660   0.02051926
8757.00   0.73394090   0.02137938
8758.00   0.73623013   0.02256879
8759.00   0.74006844   0.02370011
8760.00   0.74637473   0.02452409
8761.00   0.74952745   0.02479370
8762.00   0.72228283   0.02465785
8763.00   0.70903361   0.02467102
8764.00   0.69286507   0.02494591
8765.00   0.72838211   0.02599080
8766.00   0.73686051   0.02672533
8767.00   0.72899771   0.02699877
8768.00   0.72048736   0.02672003
8769.00   0.69600606   0.02583450
8770.00   0.71375942   0.02495672
8771.00   0.72310507   0.02408511
8772.00   0.72569281   0.02345235
8773.00   0.72572786   0.02335641
8774.00   0.73789966   0.02402208
8775.00   0.73821670   0.02528437
8776.00   0.73777872   0.02646924
8777.00   0.71729583   0.02709675
8778.00   0.70308405   0.02718428
8779.00   0.71598977   0.02699104
8780.00   0.72018552   0.02608003
8781.00   0.70947862   0.02490317
8782.00   0.69505268   0.02365961
8783.00   0.68385887   0.02263701
8784.00   0.70508993   0.02186703
8785.00   0.72649562   0.02130157
8786.00   0.71338707   0.02081720
8787.00   0.70249605   0.02088019
8788.00   0.69785082   0.02142427
8789.00   0.71801031   0.02217421
8790.00   0.71254146   0.02249080
8791.00   0.70149148   0.02259937
8792.00   0.70679724   0.02258292
8793.00   0.70922750   0.02222920
8794.00   0.71503460   0.02187029
8795.00   0.71126211   0.02151114
8796.00   0.69553584   0.02107649
8797.00   0.68102211   0.02068670
8798.00   0.70108473   0.02058787
8799.00   0.73199737   0.02107077
8800.00   0.74228346   0.02110434
8801.00   0.74274462   0.02095626
8802.00   0.73720032   0.02076077
8803.00   0.73216343   0.02065116
8804.00   0.72126317   0.02044162
8805.00   0.71805024   0.02035759
8806.00   0.71406496   0.02034049
8807.00   0.71315026   0.02043889
8808.00   0.72911108   0.02069665
8809.00   0.73310053   0.02083482
8810.00   0.73513591   0.02088483
8811.00   0.72696376   0.02076058
8812.00   0.72680938   0.02075627
8813.00   0.72350740   0.02072624
8814.00   0.73499119   0.02084507
8815.00   0.73405969   0.02082103
8816.00   0.71582907   0.02060565
8817.00   0.72404373   0.02055834
8818.00   0.72555524   0.02059178
8819.00   0.70358902   0.02051527
8820.00   0.70470321   0.02062856
8821.00   0.69034117   0.02079822
8822.00   0.67423648   0.02204048
8823.00   0.68390989   0.02554497
8824.00   0.70414621   0.02945650
8825.00   0.70853734   0.03271395
8826.00   0.71128702   0.03474279
8827.00   0.68606132   0.03565958
8828.00   0.65832937   0.03489906
8829.00   0.66970593   0.03288057
8830.00   0.68912911   0.03005536
8831.00   0.66264951   0.02732709
8832.00   0.65295762   0.02569380
8833.00   0.67761302   0.02593869
8834.00   0.67127597   0.02690476
8835.00   0.63269717   0.02752238
8836.00   0.61930215   0.02752159
8837.00   0.65731978   0.02675493
8838.00   0.65719712   0.02493709
8839.00   0.63636839   0.02281789
8840.00   0.63744652   0.02168750
8841.00   0.64670449   0.02148052
8842.00   0.64615721   0.02141349
8843.00   0.65803272   0.02151825
8844.00   0.67916292   0.02326381
8845.00   0.71933478   0.02602911
%8846.00   0.78392506   0.02717812
%8847.00   0.84127927   0.02949584
%8848.00   0.90767944   0.03483598
%8849.00   0.93910033   0.03893308
%8850.00   0.92443103   0.04301842
%8851.00   1.04029036   0.05166288
%8852.00   1.06462038   0.07598856
%8853.00   1.29337645   0.12234393
%8854.00   1.55134821   0.18634345
%8855.00   0.84648556   0.26354137
