% File created by shivutils (I.Shivvers)
% wl(A)   flm    er(optional)
3596.00   5.50163460   0.16485570
3598.00   5.59014225   0.16583675
3600.00   5.40639257   0.16334531
3602.00   5.57801533   0.16211347
3604.00   5.45983982   0.16057622
3606.00   5.38846016   0.16194442
3608.00   5.32452345   0.16034448
3610.00   5.55973387   0.16322657
3612.00   5.63000345   0.16577913
3614.00   5.55747223   0.16486287
3616.00   5.66725206   0.16225091
3618.00   5.41758871   0.16030304
3620.00   5.62330580   0.16253664
3622.00   5.68691921   0.16337377
3624.00   5.55522394   0.16241504
3626.00   5.55626392   0.15922163
3628.00   5.73777723   0.16094385
3630.00   5.55659771   0.16054794
3632.00   5.72131777   0.16120684
3634.00   5.72076559   0.16093485
3636.00   5.44676256   0.15834354
3638.00   5.67195082   0.15788032
3640.00   5.58013773   0.16057421
3642.00   5.61638689   0.15990752
3644.00   5.74204063   0.16046035
3646.00   5.76975489   0.16354647
3648.00   5.72365761   0.17221299
3650.00   5.62850475   0.17070340
3652.00   5.66522074   0.16683182
3654.00   5.77515888   0.16382913
3656.00   5.70615625   0.15795849
3658.00   5.68067217   0.15525913
3660.00   5.84508944   0.15744476
3662.00   5.61526775   0.15711102
3664.00   5.56408739   0.15293778
3666.00   5.56240940   0.14946733
3668.00   5.67997503   0.14836307
3670.00   5.55451632   0.14725335
3672.00   5.58919048   0.14728636
3674.00   5.40624475   0.14494984
3676.00   5.58651447   0.14552048
3678.00   5.45232391   0.14294916
3680.00   5.50530910   0.14344199
3682.00   5.57845974   0.14380993
3684.00   5.75567865   0.14423759
3686.00   5.65104294   0.14007491
3688.00   5.55908680   0.14261083
3690.00   5.57318830   0.14310536
3692.00   5.61602783   0.14334232
3694.00   5.60106039   0.14204225
3696.00   5.69010782   0.14027736
3698.00   5.50084686   0.14175886
3700.00   5.59496164   0.14134686
3702.00   5.46584272   0.13951041
3704.00   5.59164476   0.13832869
3706.00   5.52812862   0.13701549
3708.00   5.37426853   0.13517031
3710.00   5.39925098   0.13589120
3712.00   5.47367764   0.13323425
3714.00   5.52496672   0.13314031
3716.00   5.42352915   0.13464160
3718.00   5.48367167   0.13283035
3720.00   5.28009415   0.12871118
3722.00   5.40866709   0.13086918
3724.00   5.35852814   0.13115326
3726.00   5.33285952   0.13080372
3728.00   5.34256124   0.12979768
3730.00   5.25297689   0.12748714
3732.00   5.31409502   0.12718289
3734.00   5.22730732   0.12475634
3736.00   5.30149651   0.12586875
3738.00   5.28169060   0.12703922
3740.00   5.31554985   0.12360440
3742.00   5.43143320   0.12671126
3744.00   5.17364645   0.12274625
3746.00   5.17106724   0.12214877
3748.00   5.16484022   0.12147900
3750.00   5.13107538   0.12163828
3752.00   5.16245413   0.12288546
3754.00   5.20991755   0.12348783
3756.00   4.97168159   0.12011184
3758.00   5.26164436   0.12175873
3760.00   5.27652311   0.12146622
3762.00   5.28463221   0.12092297
3764.00   5.29740572   0.12064200
3766.00   5.14666986   0.11896674
3768.00   5.19503021   0.11940607
3770.00   5.23929596   0.13044912
3772.00   5.36429310   0.11926632
3774.00   5.15120459   0.11880180
3776.00   5.16048670   0.11826923
3778.00   5.11454487   0.11765627
3780.00   4.98354435   0.11269286
3782.00   5.04703236   0.11624277
3784.00   5.01100111   0.11471138
3786.00   4.94618750   0.11298921
3788.00   5.08431530   0.11362725
3790.00   4.95896816   0.11239044
3792.00   4.93803501   0.11147228
3794.00   4.97635126   0.11081620
3796.00   4.99791336   0.10946677
3798.00   4.94180536   0.10894844
3800.00   4.86234140   0.10929910
3802.00   4.85894775   0.10933340
3804.00   4.80989647   0.10853290
3806.00   4.94399357   0.10860985
3808.00   4.91937876   0.10809054
3810.00   4.98933268   0.10853132
3812.00   5.01466227   0.10800034
3814.00   4.92611742   0.10617604
3816.00   4.86225939   0.10537043
3818.00   5.02256107   0.10612126
3820.00   4.90433931   0.10440281
3822.00   5.00354147   0.10484129
3824.00   5.02808762   0.10436343
3826.00   4.89399529   0.10301884
3828.00   4.97009754   0.10410751
3830.00   5.01648045   0.10397520
3832.00   4.96929741   0.10269523
3834.00   5.04055882   0.10309616
3836.00   5.00296164   0.10252398
3838.00   4.94949913   0.10263865
3840.00   5.04042149   0.10394208
3842.00   5.02687836   0.10420115
3844.00   5.07425642   0.10373054
3846.00   5.03205729   0.10223902
3848.00   4.90953112   0.10073072
3850.00   4.95452929   0.10047193
3852.00   5.01784754   0.10112295
3854.00   5.04613543   0.10066082
3856.00   4.99439096   0.09951960
3858.00   5.04710913   0.09908164
3860.00   4.97848606   0.09877244
3862.00   4.97372913   0.09961804
3864.00   5.06094980   0.09968241
3866.00   5.10784674   0.09975091
3868.00   5.05540943   0.09849738
3870.00   5.06505728   0.09807190
3872.00   5.00463295   0.09834578
3874.00   4.99728489   0.09895595
3876.00   4.98322105   0.09783657
3878.00   4.99755764   0.09685875
3880.00   5.02827787   0.09674243
3882.00   4.89261293   0.09566502
3884.00   4.93327332   0.09552401
3886.00   4.92162991   0.09483062
3888.00   4.88627434   0.09466832
3890.00   5.07969332   0.09654706
3892.00   4.90532160   0.09575025
3894.00   4.98968172   0.09611235
3896.00   4.95357418   0.09561306
3898.00   4.73313475   0.09402888
3900.00   4.84023523   0.09462647
3902.00   4.94947243   0.09505803
3904.00   4.95949793   0.09601935
3906.00   4.79477024   0.09609841
3908.00   4.88350582   0.09739058
3910.00   4.74343109   0.09755243
3912.00   4.74331284   0.09763747
3914.00   4.71211958   0.09443299
3916.00   4.70949078   0.09180637
3918.00   4.65555191   0.09017950
3920.00   4.53207111   0.08851072
3922.00   4.62661839   0.08903244
3924.00   4.67854691   0.08899093
3926.00   4.48984385   0.08679038
3928.00   4.49230146   0.08566044
3930.00   4.42325878   0.08538660
3932.00   4.19917393   0.08423721
3934.00   4.07875633   0.08275150
3936.00   4.48451424   0.08477502
3938.00   4.45978832   0.08496900
3940.00   4.51532650   0.08600463
3942.00   4.59029388   0.08685146
3944.00   4.48378754   0.08615740
3946.00   4.50244331   0.08601476
3948.00   4.44191647   0.08531483
3950.00   4.35623646   0.08446872
3952.00   4.41915417   0.08490063
3954.00   4.50728130   0.08474899
3956.00   4.46082258   0.08464310
3958.00   4.42863369   0.08445442
3960.00   4.51202679   0.08512872
3962.00   4.46307468   0.08354443
3964.00   4.28848267   0.08099615
3966.00   4.43113804   0.08149814
3968.00   4.20503902   0.07976873
3970.00   4.51341915   0.08199009
3972.00   4.53803730   0.08257656
3974.00   4.55350590   0.08311964
3976.00   4.46798801   0.08291068
3978.00   4.55749846   0.08396590
3980.00   4.56681299   0.08396050
3982.00   4.62977219   0.08424445
3984.00   4.57892370   0.08343104
3986.00   4.55880308   0.08372354
3988.00   4.54924345   0.08366180
3990.00   4.51666355   0.08319794
3992.00   4.57776546   0.08369969
3994.00   4.56590223   0.08403796
3996.00   4.59696245   0.08404630
3998.00   4.63375568   0.08357418
4000.00   4.57659674   0.08284868
4002.00   4.58219624   0.08227113
4004.00   4.61814451   0.08200615
4006.00   4.62314081   0.08237132
4008.00   4.61338377   0.08256067
4010.00   4.62877226   0.08263893
4012.00   4.72700977   0.08310876
4014.00   4.70676422   0.08285978
4016.00   4.61351013   0.08280290
4018.00   4.66336441   0.08448092
4020.00   4.68926048   0.08572334
4022.00   4.64157152   0.08536909
4024.00   4.70890427   0.08487055
4026.00   4.75130892   0.08367877
4028.00   4.70549917   0.08301240
4030.00   4.75183249   0.08281564
4032.00   4.79999924   0.08234101
4034.00   4.84190607   0.08270741
4036.00   4.73192739   0.08194208
4038.00   4.70169163   0.08165427
4040.00   4.63484955   0.08122170
4042.00   4.75841236   0.08417799
4044.00   4.70923567   0.09321789
4046.00   4.78009033   0.09625828
4048.00   4.66695595   0.08779156
4050.00   4.37466240   0.07974081
4052.00   4.57365704   0.08027774
4054.00   4.49216795   0.07973809
4056.00   4.59142637   0.07948741
4058.00   4.72016478   0.07978331
4060.00   4.68321896   0.07933505
4062.00   4.68914032   0.07912122
4064.00   4.70336151   0.07895136
4066.00   4.75440168   0.07949034
4068.00   4.62906742   0.07881758
4070.00   4.68653870   0.07868497
4072.00   4.63662863   0.07835245
4074.00   4.65398264   0.07906865
4076.00   4.63613844   0.08039165
4078.00   4.53667879   0.07965686
4080.00   4.63688993   0.07962952
4082.00   4.61135483   0.07896324
4084.00   4.60568905   0.07848522
4086.00   4.52212811   0.07804602
4088.00   4.46731710   0.07685451
4090.00   4.43761253   0.07589497
4092.00   4.50650215   0.07630327
4094.00   4.58027697   0.07649748
4096.00   4.49495888   0.07571097
4098.00   4.44800663   0.07539992
4100.00   4.46654463   0.07494672
4102.00   4.41028309   0.07445341
4104.00   4.40920877   0.07478932
4106.00   4.42612934   0.07515137
4108.00   4.43490124   0.07516144
4110.00   4.45301723   0.07534347
4112.00   4.49671602   0.07570075
4114.00   4.39502764   0.07532868
4116.00   4.42727327   0.07529557
4118.00   4.39835548   0.07465266
4120.00   4.43871975   0.07442199
4122.00   4.44401121   0.07484033
4124.00   4.41700745   0.07451774
4126.00   4.37651443   0.07398367
4128.00   4.37990332   0.07357422
4130.00   4.43666983   0.07417639
4132.00   4.42337656   0.07431017
4134.00   4.41211987   0.07392614
4136.00   4.34467363   0.07330133
4138.00   4.42530251   0.07402590
4140.00   4.44706726   0.07381452
4142.00   4.41665220   0.07287244
4144.00   4.44499254   0.07271361
4146.00   4.31739140   0.07207805
4148.00   4.40523434   0.07261284
4150.00   4.31078053   0.07227125
4152.00   4.43984938   0.07288156
4154.00   4.44764280   0.07219548
4156.00   4.42927790   0.07172200
4158.00   4.32979012   0.07144664
4160.00   4.36658478   0.07183959
4162.00   4.44564438   0.07281470
4164.00   4.38849163   0.07281628
4166.00   4.42831564   0.07236377
4168.00   4.39417887   0.07114367
4170.00   4.40887260   0.07064151
4172.00   4.39295673   0.07010397
4174.00   4.44314289   0.07038248
4176.00   4.44584465   0.07049644
4178.00   4.40951777   0.07028520
4180.00   4.38277531   0.06979313
4182.00   4.47990417   0.06991107
4184.00   4.42151451   0.06953549
4186.00   4.47993803   0.06964918
4188.00   4.42607737   0.06933168
4190.00   4.47848606   0.06987309
4192.00   4.45844221   0.06979235
4194.00   4.43188429   0.06925974
4196.00   4.37998962   0.06846763
4198.00   4.40900040   0.06851697
4200.00   4.40987301   0.06845362
4202.00   4.38035631   0.06829555
4204.00   4.37217617   0.06842401
4206.00   4.30621672   0.06826342
4208.00   4.37610579   0.06863914
4210.00   4.35758448   0.06876775
4212.00   4.33271360   0.06829287
4214.00   4.16755676   0.06712251
4216.00   4.29728222   0.06754018
4218.00   4.25817156   0.06732453
4220.00   4.24499798   0.06706014
4222.00   4.27487135   0.06658760
4224.00   4.18844700   0.06561264
4226.00   4.09724998   0.06520100
4228.00   4.09661007   0.06545687
4230.00   4.03469181   0.06568435
4232.00   4.10673523   0.06572507
4234.00   4.04546547   0.06538938
4236.00   3.98602343   0.06488032
4238.00   3.96909261   0.06466788
4240.00   3.99488139   0.06429923
4242.00   3.96284103   0.06429534
4244.00   3.88521075   0.06528389
4246.00   3.93000650   0.06576607
4248.00   3.87169838   0.06427140
4250.00   3.91300344   0.06346162
4252.00   3.87281227   0.06307630
4254.00   3.81882048   0.06285778
4256.00   3.84062862   0.06289742
4258.00   3.82040453   0.06242532
4260.00   3.80172682   0.06215568
4262.00   3.80067205   0.06245585
4264.00   3.75104690   0.06199875
4266.00   3.82711935   0.06235910
4268.00   3.74306011   0.06144312
4270.00   3.69058895   0.06084191
4272.00   3.74591756   0.06118298
4274.00   3.70196366   0.06135324
4276.00   3.74320126   0.06190317
4278.00   3.74474931   0.06186572
4280.00   3.73560047   0.06131333
4282.00   3.80032682   0.06152713
4284.00   3.76425362   0.06115695
4286.00   3.69715834   0.06059222
4288.00   3.74903870   0.06055867
4290.00   3.79919720   0.06091877
4292.00   3.82510448   0.06120551
4294.00   3.78962040   0.06091000
4296.00   3.78138399   0.06061221
4298.00   3.71109605   0.05973130
4300.00   3.74271536   0.05952166
4302.00   3.73081422   0.05960460
4304.00   3.74527025   0.05970890
4306.00   3.70601034   0.05949682
4308.00   3.73963165   0.05968751
4310.00   3.76883936   0.06034955
4312.00   3.74135041   0.06154131
4314.00   3.71939993   0.06196265
4316.00   3.64768195   0.06130396
4318.00   3.75117898   0.06208643
4320.00   3.71883249   0.06200467
4322.00   3.73833799   0.06133135
4324.00   3.73078060   0.06079538
4326.00   3.61048746   0.06023394
4328.00   3.59295630   0.06009877
4330.00   3.61544824   0.06018501
4332.00   3.56747913   0.05996840
4334.00   3.55762148   0.05961858
4336.00   3.52279568   0.05924591
4338.00   3.46790838   0.05869119
4340.00   3.50655961   0.05894118
4342.00   3.48203993   0.05910551
4344.00   3.55453539   0.06031368
4346.00   3.52551126   0.06055915
4348.00   3.51401687   0.06035651
4350.00   3.52575755   0.05979481
4352.00   3.47185826   0.05938868
4354.00   3.48273516   0.06583474
4356.00   3.44463205   0.07948418
4358.00   3.50264740   0.08238083
4360.00   3.43763733   0.07045887
4362.00   3.40119720   0.06215973
4364.00   3.45259261   0.06050181
4366.00   3.46747708   0.06002998
4368.00   3.46675992   0.05974741
4370.00   3.46885228   0.05967959
4372.00   3.40993071   0.05965590
4374.00   3.41427374   0.05967970
4376.00   3.51056743   0.05954248
4378.00   3.40902400   0.05863268
4380.00   3.46645331   0.05852418
4382.00   3.47505832   0.05775047
4384.00   3.42208576   0.05724778
4386.00   3.41652822   0.05731850
4388.00   3.45832634   0.05744077
4390.00   3.41563964   0.05721965
4392.00   3.44511366   0.05731809
4394.00   3.37301445   0.05686240
4396.00   3.41911221   0.05721043
4398.00   3.43242383   0.05760905
4400.00   3.41290236   0.05762282
4402.00   3.38478923   0.05694915
4404.00   3.44530773   0.05678263
4406.00   3.42257810   0.05679693
4408.00   3.38705492   0.05683768
4410.00   3.44976521   0.05733056
4412.00   3.39594555   0.05720557
4414.00   3.37536287   0.05708341
4416.00   3.38830590   0.05713235
4418.00   3.40552735   0.05694280
4420.00   3.39864349   0.05672890
4422.00   3.42297101   0.05664197
4424.00   3.43062782   0.05677715
4426.00   3.44130087   0.05690080
4428.00   3.41377187   0.05655285
4430.00   3.50909066   0.05690534
4432.00   3.44177508   0.05654746
4434.00   3.44840670   0.05642234
4436.00   3.51419783   0.05689738
4438.00   3.51433420   0.05704151
4440.00   3.46158528   0.05673397
4442.00   3.52342105   0.05682100
4444.00   3.56636000   0.05698229
4446.00   3.51296449   0.05685519
4448.00   3.53122282   0.05675687
4450.00   3.63084149   0.05738162
4452.00   3.59858274   0.05706210
4454.00   3.60437942   0.05689308
4456.00   3.72841930   0.05725164
4458.00   3.68745136   0.05714495
4460.00   3.69214034   0.05723338
4462.00   3.63005567   0.05702937
4464.00   3.61079645   0.05706772
4466.00   3.67594528   0.05713900
4468.00   3.62291980   0.05673169
4470.00   3.74679208   0.05741017
4472.00   3.65155172   0.05726233
4474.00   3.72844481   0.05732315
4476.00   3.71665812   0.05693908
4478.00   3.74961638   0.05674583
4480.00   3.75085878   0.05665557
4482.00   3.73712635   0.05658216
4484.00   3.72728109   0.05667088
4486.00   3.75676513   0.05701353
4488.00   3.74317169   0.05685751
4490.00   3.78055549   0.05698498
4492.00   3.83931160   0.05741537
4494.00   3.84616947   0.05835198
4496.00   3.81340170   0.05735163
4498.00   3.78489089   0.05710196
4500.00   3.74250221   0.05667067
4502.00   3.72775316   0.05661905
4504.00   3.76646805   0.05673014
4506.00   3.76380563   0.05649018
4508.00   3.72088790   0.05617566
4510.00   3.65958643   0.05588067
4512.00   3.65611148   0.05583289
4514.00   3.67844462   0.05570722
4516.00   3.66085839   0.05556109
4518.00   3.59574318   0.05520722
4520.00   3.55963421   0.05484622
4522.00   3.60404158   0.05480732
4524.00   3.60841012   0.05463053
4526.00   3.57330775   0.05430536
4528.00   3.56057906   0.05429225
4530.00   3.53537679   0.05413368
4532.00   3.53455758   0.05399007
4534.00   3.50099397   0.05388781
4536.00   3.39421606   0.05343585
4538.00   3.42033935   0.05350196
4540.00   3.44368792   0.05365851
4542.00   3.35420728   0.05341063
4544.00   3.38939595   0.05325988
4546.00   3.31125045   0.05260664
4548.00   3.30730915   0.05252277
4550.00   3.25312614   0.05195865
4552.00   3.27429271   0.05197406
4554.00   3.23344088   0.05194964
4556.00   3.19538450   0.05167380
4558.00   3.26226735   0.05192648
4560.00   3.19719195   0.05152310
4562.00   3.25683427   0.05148003
4564.00   3.20275402   0.05104681
4566.00   3.21856666   0.05107585
4568.00   3.24993944   0.05119033
4570.00   3.10966539   0.05034671
4572.00   3.21936870   0.05089607
4574.00   3.20224524   0.05070956
4576.00   3.19133973   0.05045092
4578.00   3.14891100   0.05004904
4580.00   3.20246458   0.05003121
4582.00   3.25682616   0.05019223
4584.00   3.22867012   0.05011837
4586.00   3.29019642   0.05049434
4588.00   3.25598931   0.05054544
4590.00   3.27739048   0.05067219
4592.00   3.23941755   0.05049436
4594.00   3.32906675   0.05096366
4596.00   3.33012176   0.05103601
4598.00   3.28719831   0.05087078
4600.00   3.36700177   0.05108107
4602.00   3.33724213   0.05107585
4604.00   3.35491776   0.05130694
4606.00   3.39880919   0.05167289
4608.00   3.40987897   0.05187441
4610.00   3.38631272   0.05178836
4612.00   3.38368177   0.05150058
4614.00   3.41816282   0.05173851
4616.00   3.41302872   0.05160395
4618.00   3.39489985   0.05149757
4620.00   3.41289449   0.05171195
4622.00   3.42402148   0.05174528
4624.00   3.40635729   0.05167188
4626.00   3.40135479   0.05146339
4628.00   3.35006404   0.05111152
4630.00   3.33079362   0.05089216
4632.00   3.31168294   0.05073617
4634.00   3.34682178   0.05076527
4636.00   3.27791667   0.05032589
4638.00   3.27520943   0.05027582
4640.00   3.30359483   0.05053319
4642.00   3.26289821   0.05035776
4644.00   3.22371459   0.04999059
4646.00   3.26671004   0.05006728
4648.00   3.24336839   0.04997112
4650.00   3.26571894   0.05020771
4652.00   3.22515798   0.05001556
4654.00   3.14946699   0.04954578
4656.00   3.21120977   0.04987377
4658.00   3.22316837   0.05002679
4660.00   3.18987608   0.04998846
4662.00   3.13738894   0.04964632
4664.00   3.16265607   0.04960158
4666.00   3.17285085   0.04956539
4668.00   3.12173104   0.04946601
4670.00   3.16829157   0.04979405
4672.00   3.16272378   0.04964805
4674.00   3.15995765   0.04952010
4676.00   3.19160271   0.04938915
4678.00   3.16530728   0.04911732
4680.00   3.15255976   0.04892831
4682.00   3.20088768   0.04911194
4684.00   3.16407967   0.04887443
4686.00   3.16990447   0.04875447
4688.00   3.23608255   0.04900795
4690.00   3.22085142   0.04898276
4692.00   3.22699690   0.04879825
4694.00   3.23653841   0.04887207
4696.00   3.18449211   0.04851255
4698.00   3.18613005   0.04843295
4700.00   3.19050097   0.04830518
4702.00   3.21282291   0.04834561
4704.00   3.25333285   0.04876280
4706.00   3.27670050   0.04906495
4708.00   3.28350663   0.04905248
4710.00   3.26359940   0.04905630
4712.00   3.31409955   0.04910383
4714.00   3.26193070   0.04870233
4716.00   3.27477241   0.04875858
4718.00   3.28751707   0.04878660
4720.00   3.26701951   0.04875359
4722.00   3.24361014   0.04863881
4724.00   3.26452446   0.04861287
4726.00   3.28971529   0.04913085
4728.00   3.27454853   0.04948697
4730.00   3.23568583   0.04925941
4732.00   3.34650135   0.04972011
4734.00   3.31675363   0.04975887
4736.00   3.27082086   0.04952108
4738.00   3.29093671   0.04991279
4740.00   3.38543606   0.05063527
4742.00   3.38648939   0.05076262
4744.00   3.37086987   0.05025736
4746.00   3.33597541   0.04926312
4748.00   3.38284397   0.04896298
4750.00   3.35499978   0.04881355
4752.00   3.36639738   0.04903793
4754.00   3.32915068   0.04858117
4756.00   3.30538368   0.04826792
4758.00   3.35092521   0.04831675
4760.00   3.33369160   0.04816758
4762.00   3.35354400   0.04788570
4764.00   3.32964754   0.04783345
4766.00   3.37167573   0.04811912
4768.00   3.33093071   0.04773327
4770.00   3.31373978   0.04776233
4772.00   3.36023617   0.04800266
4774.00   3.33674359   0.04795172
4776.00   3.36417818   0.04820526
4778.00   3.36207056   0.04848067
4780.00   3.33578920   0.04817801
4782.00   3.31897044   0.04770583
4784.00   3.36107445   0.04780438
4786.00   3.35153580   0.04777163
4788.00   3.28606701   0.04738130
4790.00   3.34355116   0.04759515
4792.00   3.28926873   0.04736427
4794.00   3.33641171   0.04752930
4796.00   3.28102088   0.04713725
4798.00   3.29044914   0.04703375
4800.00   3.31793499   0.04718160
4802.00   3.22846723   0.04680125
4804.00   3.27528548   0.04699291
4806.00   3.25035119   0.04685441
4808.00   3.20236111   0.04669216
4810.00   3.21133471   0.04676271
4812.00   3.23400903   0.04666229
4814.00   3.25270629   0.04683485
4816.00   3.17626810   0.04662491
4818.00   3.17069864   0.04652428
4820.00   3.15967226   0.04645831
4822.00   3.14166498   0.04641198
4824.00   3.16777849   0.04656668
4826.00   3.16805983   0.04668560
4828.00   3.20786548   0.04688378
4830.00   3.18332815   0.04673853
4832.00   3.14241600   0.04650611
4834.00   3.16804409   0.04659128
4836.00   3.11022949   0.04633514
4838.00   3.10190606   0.04637376
4840.00   3.10265207   0.04628534
4842.00   3.08374000   0.04595570
4844.00   3.14508104   0.04628167
4846.00   3.10504174   0.04616916
4848.00   3.13125944   0.04622876
4850.00   3.12249327   0.04629191
4852.00   3.10939574   0.04602471
4854.00   3.09838796   0.04569234
4856.00   3.08910871   0.04542699
4858.00   3.12910724   0.04534524
4860.00   3.09483624   0.04530277
4862.00   3.06229711   0.04531536
4864.00   3.14127231   0.04583325
4866.00   3.04553008   0.04549581
4868.00   3.05132294   0.04547402
4870.00   3.09021974   0.04549126
4872.00   3.03175783   0.04521300
4874.00   3.06411600   0.04540642
4876.00   3.12250948   0.04577909
4878.00   3.06108952   0.04570117
4880.00   3.06342459   0.04556231
4882.00   3.02460694   0.04527314
4884.00   3.05137777   0.04525094
4886.00   3.03185964   0.04509783
4888.00   3.04943538   0.04503871
4890.00   3.09163570   0.04512769
4892.00   3.03545451   0.04500447
4894.00   2.96225929   0.04482459
4896.00   2.97947717   0.04493527
4898.00   3.01835179   0.04491017
4900.00   2.98115253   0.04469018
4902.00   2.99088740   0.04468826
4904.00   3.02095890   0.04490096
4906.00   2.95009947   0.04459054
4908.00   2.91062760   0.04437094
4910.00   2.91940951   0.04434037
4912.00   3.00180888   0.04472481
4914.00   2.93745089   0.04451305
4916.00   2.92559719   0.04437523
4918.00   2.89356875   0.04400099
4920.00   2.91966653   0.04398521
4922.00   2.92241120   0.04411098
4924.00   2.89514327   0.04397635
4926.00   2.90914392   0.04404434
4928.00   2.92761707   0.04408284
4930.00   2.86950135   0.04378679
4932.00   2.87576151   0.04373711
4934.00   2.89830494   0.04379277
4936.00   2.90678859   0.04385929
4938.00   2.89436460   0.04381886
4940.00   2.82994103   0.04362553
4942.00   2.86932325   0.04372079
4944.00   2.89487553   0.04370158
4946.00   2.83131003   0.04325914
4948.00   2.86747742   0.04347932
4950.00   2.85856748   0.04367319
4952.00   2.84585857   0.04368842
4954.00   2.82934952   0.04341347
4956.00   2.85900593   0.04347995
4958.00   2.87652278   0.04339976
4960.00   2.86800146   0.04348681
4962.00   2.81054497   0.04319946
4964.00   2.84570575   0.04334380
4966.00   2.83402872   0.04334655
4968.00   2.87090993   0.04364090
4970.00   2.84407568   0.04368198
4972.00   2.85637665   0.04396289
4974.00   2.84799051   0.04424077
4976.00   2.80298805   0.04427838
4978.00   2.82347012   0.04479422
4980.00   2.82899594   0.04517354
4982.00   2.82459927   0.04521139
4984.00   2.83327961   0.04503394
4986.00   2.82345295   0.04478080
4988.00   2.82475400   0.04440290
4990.00   2.80003524   0.04412510
4992.00   2.76390123   0.04369104
4994.00   2.82474422   0.04364088
4996.00   2.80522346   0.04327362
4998.00   2.76879311   0.04283857
5000.00   2.79037189   0.04283990
5002.00   2.80250931   0.04277366
5004.00   2.78454757   0.04243175
5006.00   2.81145787   0.04252002
5008.00   2.70526171   0.04254996
5010.00   2.76303315   0.04305405
5012.00   2.69868565   0.04230737
5014.00   2.75807762   0.04232564
5016.00   2.71967888   0.04204771
5018.00   2.70888638   0.04200200
5020.00   2.71591401   0.04210410
5022.00   2.74968219   0.04202837
5024.00   2.73225546   0.04183906
5026.00   2.70974636   0.04181922
5028.00   2.68372178   0.04180384
5030.00   2.65302420   0.04171949
5032.00   2.69268942   0.04196195
5034.00   2.70643830   0.04175714
5036.00   2.67471600   0.04151190
5038.00   2.67151213   0.04136957
5040.00   2.69214892   0.04135017
5042.00   2.67821074   0.04132418
5044.00   2.70524526   0.04165095
5046.00   2.65742111   0.04126383
5048.00   2.68536425   0.04152046
5050.00   2.67959237   0.04142520
5052.00   2.67115688   0.04133571
5054.00   2.65486574   0.04129008
5056.00   2.66797924   0.04131686
5058.00   2.64095759   0.04121441
5060.00   2.65302873   0.04131963
5062.00   2.64569044   0.04159286
5064.00   2.65483332   0.04158833
5066.00   2.67361879   0.04183319
5068.00   2.64608288   0.04194606
5070.00   2.62373614   0.04180716
5072.00   2.65855551   0.04178789
5074.00   2.62078142   0.04141790
5076.00   2.63511562   0.04135319
5078.00   2.64934111   0.04182417
5080.00   2.60052776   0.04258316
5082.00   2.61767578   0.04351719
5084.00   2.65222430   0.04417585
5086.00   2.65031624   0.04394599
5088.00   2.64051843   0.04304450
5090.00   2.63787508   0.04223552
5092.00   2.62170172   0.04151434
5094.00   2.64041162   0.04149728
5096.00   2.56809878   0.04136139
5098.00   2.61339808   0.04177687
5100.00   2.61027527   0.04183801
5102.00   2.61113000   0.04149660
5104.00   2.59451675   0.04103052
5106.00   2.60296607   0.04084206
5108.00   2.57017255   0.04070327
5110.00   2.58923459   0.04096340
5112.00   2.60255480   0.04102202
5114.00   2.60162473   0.04099524
5116.00   2.59743500   0.04101114
5118.00   2.56566072   0.04082466
5120.00   2.57100821   0.04061208
5122.00   2.61482811   0.04066420
5124.00   2.60113549   0.04052844
5126.00   2.54881001   0.04015840
5128.00   2.55195713   0.04028421
5130.00   2.63390827   0.04075163
5132.00   2.57073665   0.04052979
5134.00   2.61774945   0.04051170
5136.00   2.58906269   0.04036827
5138.00   2.55946803   0.04022281
5140.00   2.55674720   0.04030129
5142.00   2.57648611   0.04043517
5144.00   2.53910756   0.04030095
5146.00   2.50826406   0.04021557
5148.00   2.57344270   0.04068004
5150.00   2.55197597   0.04087333
5152.00   2.57741952   0.04110683
5154.00   2.57372475   0.04107954
5156.00   2.57601023   0.04099989
5158.00   2.56462717   0.04080917
5160.00   2.55674720   0.04066784
5162.00   2.53260136   0.04036153
5164.00   2.60396242   0.04049663
5166.00   2.56509542   0.03997868
5168.00   2.58006668   0.03989246
5170.00   2.58379745   0.03971432
5172.00   2.55450726   0.03968085
5174.00   2.59616375   0.04003187
5176.00   2.58070707   0.04001301
5178.00   2.56634617   0.04008403
5180.00   2.56716108   0.03994260
5182.00   2.59590888   0.03993323
5184.00   2.51745868   0.03960593
5186.00   2.54206371   0.03984189
5188.00   2.56565928   0.04002463
5190.00   2.58189368   0.04013205
5192.00   2.57972622   0.03996928
5194.00   2.63501024   0.04045575
5196.00   2.60067868   0.04080252
5198.00   2.58624291   0.04095828
5200.00   2.57283425   0.04084321
5202.00   2.62544465   0.04076425
5204.00   2.64182997   0.04064799
5206.00   2.62430811   0.04027791
5208.00   2.63670039   0.04045396
5210.00   2.61997700   0.04053041
5212.00   2.62849832   0.04049537
5214.00   2.65108585   0.04061494
5216.00   2.59165239   0.04027889
5218.00   2.57791066   0.04035191
5220.00   2.63492513   0.04063852
5222.00   2.60839081   0.04021830
5224.00   2.61144757   0.04004201
5226.00   2.63972688   0.04014732
5228.00   2.59533072   0.03987455
5230.00   2.57169199   0.03979931
5232.00   2.63617706   0.04012445
5234.00   2.62015367   0.04006480
5236.00   2.62984633   0.04005606
5238.00   2.60101438   0.04003542
5240.00   2.58713531   0.03991265
5242.00   2.59066772   0.03986200
5244.00   2.62316632   0.04000294
5246.00   2.63847709   0.04005836
5248.00   2.60265970   0.03978091
5250.00   2.58982730   0.03972322
5252.00   2.64921093   0.03991551
5254.00   2.61414289   0.03977290
5256.00   2.61587310   0.04005910
5258.00   2.68081951   0.04047015
5260.00   2.67094135   0.04020817
5262.00   2.61931467   0.03970287
5264.00   2.60642648   0.03952137
5266.00   2.65101767   0.03976414
5268.00   2.64407063   0.03966776
5270.00   2.71011829   0.03997978
5272.00   2.71363854   0.04010088
5274.00   2.66290855   0.03982515
5276.00   2.65906549   0.03983961
5278.00   2.63812351   0.03981341
5280.00   2.66573286   0.03989193
5282.00   2.66488910   0.03988282
5284.00   2.62270761   0.03976648
5286.00   2.60954547   0.03982837
5288.00   2.61904287   0.03974096
5290.00   2.64794779   0.03989094
5292.00   2.61031675   0.03965650
5294.00   2.63244390   0.03979454
5296.00   2.66446209   0.03990893
5298.00   2.60656834   0.03950753
5300.00   2.61439824   0.03959271
5302.00   2.60094380   0.03950301
5304.00   2.59059930   0.03943477
5306.00   2.61156511   0.03947738
5308.00   2.62231183   0.03949613
5310.00   2.59600711   0.03954742
5312.00   2.63482952   0.03970660
5314.00   2.58770108   0.03935663
5316.00   2.56897402   0.03930566
5318.00   2.56467080   0.03927168
5320.00   2.55769944   0.03920171
5322.00   2.57242870   0.03913776
5324.00   2.54132652   0.03894818
5326.00   2.53544497   0.03888330
5328.00   2.55280709   0.03902240
5330.00   2.55166292   0.03896656
5332.00   2.54478836   0.03900978
5334.00   2.53467965   0.03891827
5336.00   2.52084804   0.03900707
5338.00   2.51764846   0.03893947
5340.00   2.53169703   0.03915807
5342.00   2.52633309   0.03914525
5344.00   2.50391555   0.03908442
5346.00   2.50069475   0.03911470
5348.00   2.51680326   0.03954590
5350.00   2.48770022   0.03939616
5352.00   2.54263330   0.03966068
5354.00   2.54123306   0.03985135
5356.00   2.49734306   0.03962447
5358.00   2.47720337   0.03926321
5360.00   2.50187564   0.03906207
5362.00   2.48196268   0.03882330
5364.00   2.50370955   0.03884863
5366.00   2.46265626   0.03848846
5368.00   2.47951031   0.03855140
5370.00   2.48541069   0.03864011
5372.00   2.45649719   0.03878931
5374.00   2.43389082   0.03897280
5376.00   2.43733954   0.03897176
5378.00   2.44219685   0.03897002
5380.00   2.44291902   0.03902885
5382.00   2.45049882   0.03911198
5384.00   2.44903469   0.03914593
5386.00   2.43451428   0.03925044
5388.00   2.44309449   0.03964264
5390.00   2.44448280   0.03991520
5392.00   2.42169166   0.04006483
5394.00   2.44371057   0.04015630
5396.00   2.46373868   0.04037631
5398.00   2.43535471   0.04038538
5400.00   2.42486048   0.04049776
5402.00   2.39755535   0.04047365
5404.00   2.38686037   0.04063445
5406.00   2.43015051   0.04099334
5408.00   2.42102027   0.04130661
5410.00   2.41706228   0.04152357
5412.00   2.38210392   0.04161051
5414.00   2.36815429   0.04198963
5416.00   2.34583974   0.04220349
5418.00   2.38578486   0.04253728
5420.00   2.35214424   0.04247920
5422.00   2.33370590   0.04254684
5424.00   2.31947637   0.04251533
5426.00   2.25894618   0.04233120
5428.00   2.27160311   0.04241620
5430.00   2.31645823   0.04282204
5432.00   2.27976418   0.04287812
5434.00   2.30396318   0.04319280
5436.00   2.30166650   0.04332941
5438.00   2.28858876   0.04357220
5440.00   2.29153013   0.04372533
5442.00   2.26783013   0.04383565
5444.00   2.24492955   0.04418958
5446.00   2.24143457   0.04426778
5448.00   2.22403932   0.04442536
5450.00   2.21974778   0.04442967
5452.00   2.17941499   0.04440385
5454.00   2.24678540   0.04502619
5456.00   2.28082108   0.04806901
5458.00   2.21665406   0.05403653
5460.00   2.18855691   0.05732904
5462.00   2.25195837   0.05576350
5464.00   2.25550747   0.05271514
5466.00   2.19035172   0.05039039
5468.00   2.21459246   0.04892017
5470.00   2.23819780   0.04799363
5472.00   2.20258355   0.04716022
5474.00   2.26559758   0.04730918
5476.00   2.24294400   0.04699105
5478.00   2.26083732   0.04741244
5480.00   2.23919368   0.04801537
5482.00   2.24340606   0.04863110
5484.00   2.19286513   0.04805645
5486.00   2.28931642   0.04839659
5488.00   2.23585629   0.04771093
5490.00   2.24334049   0.04757249
5492.00   2.21600699   0.04736698
5494.00   2.25058031   0.04751222
5496.00   2.23306084   0.04742689
5498.00   2.20401049   0.04722031
5500.00   2.18428755   0.04716364
5502.00   2.22836709   0.04742200
5504.00   2.26462340   0.04771839
5506.00   2.22060943   0.04757427
5508.00   2.21547675   0.04763013
5510.00   2.26734257   0.04806771
5512.00   2.20933604   0.04817452
5514.00   2.21283627   0.04861498
5516.00   2.23593020   0.04881800
5518.00   2.24414587   0.04911234
5520.00   2.22591352   0.04911717
5522.00   2.18219948   0.04882074
5524.00   2.23182726   0.04911348
5526.00   2.17104864   0.04887637
5528.00   2.22490931   0.04901626
5530.00   2.28275871   0.04910388
5532.00   2.25141573   0.04900769
5534.00   2.25226712   0.04905408
5536.00   2.24161172   0.04904444
5538.00   2.26638246   0.04941155
5540.00   2.26258564   0.04959057
5542.00   2.24949622   0.04949597
5544.00   2.26926684   0.04988489
5546.00   2.20794058   0.04955430
5548.00   2.30102968   0.04999450
5550.00   2.27961040   0.05012828
5552.00   2.19830155   0.04964164
5554.00   2.23380589   0.04990399
5556.00   2.22387147   0.04991877
5558.00   2.21749616   0.04972721
5560.00   2.20277977   0.04989957
5562.00   2.17400432   0.04969409
5564.00   2.15609694   0.04976615
5566.00   2.15886736   0.04963563
5568.00   2.24756718   0.05024093
5570.00   2.22618699   0.04213479
5572.00   2.18095970   0.04322357
5574.00   2.19724131   0.04613516
5576.00   2.19514060   0.04956576
5578.00   2.17097783   0.05185181
5580.00   2.16534328   0.05205925
5582.00   2.25387096   0.05129707
5584.00   2.17822719   0.04853432
5586.00   2.15179753   0.04453715
5588.00   2.19627666   0.04078254
5590.00   2.22373319   0.03882198
5592.00   2.17446160   0.03818772
5594.00   2.15062714   0.03799395
5596.00   2.16781020   0.03796018
5598.00   2.18189120   0.03777380
5600.00   2.14609003   0.03730268
5602.00   2.16567636   0.03714022
5604.00   2.19298220   0.03710847
5606.00   2.19376063   0.03695357
5608.00   2.15817213   0.03665867
5610.00   2.10543990   0.03639137
5612.00   2.09484172   0.03617697
5614.00   2.12313247   0.03607051
5616.00   2.13308835   0.03588234
5618.00   2.11799932   0.03563408
5620.00   2.11581016   0.03550694
5622.00   2.09101391   0.03518673
5624.00   2.10351753   0.03510494
5626.00   2.11081386   0.03505092
5628.00   2.10021377   0.03490947
5630.00   2.10282779   0.03476698
5632.00   2.10509586   0.03461691
5634.00   2.08790946   0.03440290
5636.00   2.07027888   0.03419293
5638.00   2.06475163   0.03402375
5640.00   2.06554985   0.03386768
5642.00   2.07210517   0.03381779
5644.00   2.06945586   0.03371439
5646.00   2.04260159   0.03349053
5648.00   2.00029206   0.03318040
5650.00   1.98119640   0.03291992
5652.00   1.97463322   0.03273899
5654.00   1.97474957   0.03264424
5656.00   1.96638012   0.03248774
5658.00   1.94637764   0.03223173
5660.00   1.93503189   0.03209931
5662.00   1.92576647   0.03214849
5664.00   1.93058586   0.03216089
5666.00   1.93272924   0.03224085
5668.00   1.91634762   0.03246601
5670.00   1.88548887   0.03264946
5672.00   1.89106524   0.03283815
5674.00   1.90244257   0.03292757
5676.00   1.91487777   0.03297133
5678.00   1.92677689   0.03308391
5680.00   1.91945553   0.03334630
5682.00   1.90833998   0.03376462
5684.00   1.91010094   0.03448430
5686.00   1.91341054   0.03531799
5688.00   1.90620053   0.03593470
5690.00   1.92060041   0.03604549
5692.00   1.90415239   0.03570110
5694.00   1.87681961   0.03489903
5696.00   1.87309039   0.03392772
5698.00   1.90984023   0.03314458
5700.00   1.91746712   0.03247108
5702.00   1.94440114   0.03197869
5704.00   1.95505011   0.03155472
5706.00   1.94756758   0.03119060
5708.00   1.94294035   0.03093642
5710.00   1.94547021   0.03068696
5712.00   1.95335329   0.03066097
5714.00   1.96022117   0.03062703
5716.00   1.95064270   0.03046087
5718.00   1.91810548   0.03020117
5720.00   1.94204330   0.03009798
5722.00   1.96843529   0.02997448
5724.00   1.95455933   0.02975675
5726.00   1.92163551   0.02948378
5728.00   1.93410683   0.02927886
5730.00   1.94111764   0.02913824
5732.00   1.94152844   0.02900243
5734.00   1.93287849   0.02887019
5736.00   1.92220211   0.02875172
5738.00   1.92313993   0.02864785
5740.00   1.92636108   0.02825991
5742.00   1.91070139   0.02894873
5744.00   1.91173875   0.02847519
5746.00   1.93626404   0.02841477
5748.00   1.94326651   0.02852347
5750.00   1.93509543   0.02812381
5752.00   1.94509315   0.02831755
5754.00   1.95590305   0.02831964
5756.00   1.95077407   0.02819095
5758.00   1.93418062   0.02818193
5760.00   1.93893337   0.02831357
5762.00   1.94698334   0.02844900
5764.00   1.94532335   0.02866640
5766.00   1.93191874   0.02907180
5768.00   1.92045927   0.02971075
5770.00   1.94242334   0.03013091
5772.00   1.96852839   0.03025814
5774.00   1.97406280   0.03006888
5776.00   1.95975018   0.02963338
5778.00   1.97493184   0.02913433
5780.00   1.98033464   0.02856745
5782.00   1.98177683   0.02833275
5784.00   1.98707449   0.02845979
5786.00   1.99650908   0.02879696
5788.00   1.98552322   0.02923588
5790.00   1.99378455   0.02980071
5792.00   2.00909400   0.03011372
5794.00   2.02017093   0.03010356
5796.00   2.02055812   0.02983985
5798.00   2.01655030   0.02928523
5800.00   2.01329637   0.02873279
5802.00   2.00640583   0.02835180
5804.00   2.00145745   0.02816856
5806.00   2.00748563   0.02810567
5808.00   2.02678704   0.02811436
5810.00   2.03100228   0.02808741
5812.00   2.02673745   0.02803303
5814.00   2.01806617   0.02795046
5816.00   2.00768542   0.02785014
5818.00   2.00638556   0.02783871
5820.00   2.00677967   0.02785913
5822.00   2.00860620   0.02789156
5824.00   2.01435089   0.02795102
5826.00   2.02291965   0.02804212
5828.00   1.99657977   0.02792043
5830.00   1.98844922   0.02785251
5832.00   2.00565505   0.02790621
5834.00   2.02697158   0.02800661
5836.00   2.01828837   0.02799957
5838.00   2.00523877   0.02797539
5840.00   1.99984038   0.02795079
5842.00   2.00725579   0.02797214
5844.00   2.01705980   0.02801381
5846.00   2.00765967   0.02798359
5848.00   1.99249411   0.02794014
5850.00   1.98970830   0.02798020
5852.00   1.98753011   0.02801081
5854.00   1.97929859   0.02799135
5856.00   1.97359264   0.02799872
5858.00   1.98103333   0.02802980
5860.00   1.97651613   0.02804831
5862.00   1.96967411   0.02808700
5864.00   1.97204459   0.02816920
5866.00   1.98362112   0.02827574
5868.00   1.95204544   0.02825297
5870.00   1.95128024   0.02831299
5872.00   1.95797265   0.02834144
5874.00   1.95003283   0.02823875
5876.00   1.96130466   0.02810943
5878.00   1.97451437   0.02803407
5880.00   1.97868252   0.02794384
5882.00   1.97476447   0.02802822
5884.00   1.96452034   0.02878906
5886.00   1.93956721   0.03101092
5888.00   1.91297817   0.03453979
5890.00   1.89464998   0.03743345
5892.00   1.89697742   0.03975279
5894.00   1.91493320   0.04167740
5896.00   1.89857972   0.04220660
5898.00   1.89732897   0.04027174
5900.00   1.87927663   0.03753962
5902.00   1.86792052   0.03478001
5904.00   1.89323032   0.03210346
5906.00   1.91728175   0.02916574
5908.00   1.94283998   0.02790100
5910.00   1.95966208   0.02766193
5912.00   1.97040462   0.02777725
5914.00   1.97884130   0.02782954
5916.00   1.95646155   0.02778082
5918.00   1.96026516   0.02780142
5920.00   1.97388601   0.02779702
5922.00   1.97518146   0.02773422
5924.00   1.95303643   0.02764942
5926.00   1.95112324   0.02764477
5928.00   1.93575776   0.02765590
5930.00   1.92457390   0.02769470
5932.00   1.92761040   0.02775267
5934.00   1.94304371   0.02780569
5936.00   1.96768534   0.02785828
5938.00   1.95459652   0.02788341
5940.00   1.95444477   0.02782798
5942.00   1.97616088   0.02770323
5944.00   1.97983301   0.02756792
5946.00   1.96601498   0.02735045
5948.00   1.97030449   0.02717887
5950.00   1.97672188   0.02710478
5952.00   1.97638083   0.02711400
5954.00   1.97875249   0.02713433
5956.00   1.99361455   0.02717858
5958.00   1.99630010   0.02716424
5960.00   1.99302328   0.02706586
5962.00   1.99810755   0.02695756
5964.00   2.02369094   0.02700344
5966.00   2.00865245   0.02716950
5968.00   1.99199736   0.02710561
5970.00   1.98815882   0.02687425
5972.00   1.99170208   0.02665600
5974.00   1.97681081   0.02661834
5976.00   1.98971272   0.02665784
5978.00   1.99559247   0.02660265
5980.00   2.00325489   0.02661809
5982.00   2.03433418   0.02723269
5984.00   1.97673774   0.02931709
5986.00   2.05231047   0.02988270
5988.00   1.99261296   0.02851318
5990.00   1.98412895   0.02834444
5992.00   2.01357484   0.02637234
5994.00   2.01117206   0.02621900
5996.00   2.00981832   0.02618283
5998.00   1.96752894   0.02720507
%6000.00   1.91666305   0.02632022
%6002.00   1.91026974   0.02662867
6004.00   1.97420216   0.02835504
6006.00   1.97093928   0.02747329
6008.00   1.95750082   0.02618010
6010.00   1.95291424   0.02556269
6012.00   1.95346355   0.02568291
6014.00   1.95147383   0.02557589
6016.00   1.93478549   0.02544616
6018.00   1.92760992   0.02539219
6020.00   1.93196905   0.02538536
6022.00   1.93748724   0.02534859
6024.00   1.95021737   0.02536554
6026.00   1.93351746   0.02527858
6028.00   1.91934931   0.02519668
6030.00   1.92414343   0.02519198
6032.00   1.93903792   0.02524327
6034.00   1.90657997   0.02509011
6036.00   1.88780022   0.02494910
6038.00   1.89608777   0.02493726
6040.00   1.91482198   0.02499121
6042.00   1.91213620   0.02493603
6044.00   1.89843476   0.02482318
6046.00   1.88427067   0.02474146
6048.00   1.88300228   0.02471858
6050.00   1.89115965   0.02472711
6052.00   1.89005649   0.02470277
6054.00   1.87176311   0.02462801
6056.00   1.87804043   0.02465233
6058.00   1.88676870   0.02467730
6060.00   1.88378441   0.02462791
6062.00   1.87778234   0.02451969
6064.00   1.86968839   0.02446144
6066.00   1.85426712   0.02440206
6068.00   1.85065806   0.02434264
6070.00   1.86263800   0.02429729
6072.00   1.86688519   0.02428021
6074.00   1.84078610   0.02419264
6076.00   1.82685089   0.02414434
6078.00   1.84065676   0.02417898
6080.00   1.86566830   0.02424349
6082.00   1.85044754   0.02417322
6084.00   1.84193516   0.02415536
6086.00   1.84780085   0.02416412
6088.00   1.85121882   0.02415215
6090.00   1.84048808   0.02410359
6092.00   1.83047247   0.02407473
6094.00   1.83635747   0.02414193
6096.00   1.83364999   0.02417601
6098.00   1.82628286   0.02419624
6100.00   1.82524145   0.02425670
6102.00   1.83305311   0.02435902
6104.00   1.82515872   0.02441948
6106.00   1.80878389   0.02451824
6108.00   1.80203831   0.02472101
6110.00   1.81261003   0.02503288
6112.00   1.80680990   0.02534650
6114.00   1.79261839   0.02549236
6116.00   1.78489602   0.02551130
6118.00   1.78183615   0.02538331
6120.00   1.77803409   0.02510646
6122.00   1.79135334   0.02484231
6124.00   1.79282105   0.02454879
6126.00   1.78036594   0.02426225
6128.00   1.76907790   0.02405327
6130.00   1.77428949   0.02396895
6132.00   1.77049112   0.02390097
6134.00   1.76179898   0.02384774
6136.00   1.75420523   0.02377601
6138.00   1.74545515   0.02369240
6140.00   1.73038995   0.02363992
6142.00   1.72293651   0.02368943
6144.00   1.71639979   0.02373416
6146.00   1.71873283   0.02373685
6148.00   1.72501314   0.02370656
6150.00   1.72198963   0.02369307
6152.00   1.72115314   0.02378717
6154.00   1.73621237   0.02388796
6156.00   1.74208212   0.02396064
6158.00   1.73148525   0.02402480
6160.00   1.72080886   0.02412453
6162.00   1.71698844   0.02407428
6164.00   1.70664823   0.02389991
6166.00   1.70838201   0.02371272
6168.00   1.72591686   0.02355800
6170.00   1.73933411   0.02337624
6172.00   1.73612702   0.02317538
6174.00   1.74437630   0.02309650
6176.00   1.73064566   0.02297773
6178.00   1.69439113   0.02277806
6180.00   1.69501269   0.02271725
6182.00   1.72253323   0.02280973
6184.00   1.70897257   0.02275371
6186.00   1.70088673   0.02269524
6188.00   1.72244966   0.02273867
6190.00   1.70909250   0.02271104
6192.00   1.69655764   0.02267454
6194.00   1.69769192   0.02266862
6196.00   1.69837129   0.02264278
6198.00   1.69048834   0.02258859
6200.00   1.69792306   0.02264503
6202.00   1.69354904   0.02260365
6204.00   1.68135202   0.02254556
6206.00   1.67047465   0.02252123
6208.00   1.66796148   0.02254748
6210.00   1.66956270   0.02258360
6212.00   1.67942524   0.02265879
6214.00   1.66836357   0.02259778
6216.00   1.64486563   0.02243147
6218.00   1.63665104   0.02230637
6220.00   1.67769969   0.02241933
6222.00   1.66221082   0.02229570
6224.00   1.64809191   0.02220241
6226.00   1.64663279   0.02219735
6228.00   1.64338911   0.02220505
6230.00   1.63150346   0.02212371
6232.00   1.63662517   0.02219739
6234.00   1.64901447   0.02236192
6236.00   1.64802170   0.02251349
6238.00   1.62152636   0.02257596
6240.00   1.61383998   0.02262879
6242.00   1.62336636   0.02263683
6244.00   1.62890577   0.02252925
6246.00   1.62189829   0.02232674
6248.00   1.60880363   0.02212265
6250.00   1.60979843   0.02196869
6252.00   1.61341095   0.02192158
6254.00   1.61760223   0.02200926
6256.00   1.61986530   0.02217311
6258.00   1.61683130   0.02229576
6260.00   1.60283995   0.02232853
6262.00   1.58415401   0.02228288
6264.00   1.57499313   0.02220602
6266.00   1.57910097   0.02209773
6268.00   1.58724499   0.02191679
6270.00   1.58893716   0.02180575
6272.00   1.57925069   0.02166744
6274.00   1.56428146   0.02151921
6276.00   1.54819119   0.02137786
6278.00   1.53022683   0.02124313
6280.00   1.52446568   0.02130894
6282.00   1.52488565   0.02151467
6284.00   1.51244509   0.02161914
6286.00   1.48930073   0.02153092
6288.00   1.48975027   0.02143011
6290.00   1.52552760   0.02149568
6292.00   1.53319108   0.02149731
6294.00   1.53333235   0.02183449
6296.00   1.53986037   0.02300814
6298.00   1.51442325   0.02529561
6300.00   1.49989688   0.02666934
6302.00   1.49757636   0.02725439
6304.00   1.50032461   0.02726193
6306.00   1.49735177   0.02667778
6308.00   1.47767413   0.02476872
6310.00   1.48794889   0.02285453
6312.00   1.49770463   0.02172793
6314.00   1.50231993   0.02130686
6316.00   1.50702727   0.02109528
6318.00   1.51763141   0.02101096
6320.00   1.50752449   0.02093364
6322.00   1.49068630   0.02086587
6324.00   1.48332310   0.02084624
6326.00   1.49527323   0.02091697
6328.00   1.51988828   0.02109911
6330.00   1.51116097   0.02106488
6332.00   1.48937452   0.02094538
6334.00   1.48059618   0.02086354
6336.00   1.49598539   0.02086080
6338.00   1.48924983   0.02072978
6340.00   1.47098553   0.02059901
6342.00   1.47337973   0.02056347
6344.00   1.49017107   0.02060386
6346.00   1.49321365   0.02062703
6348.00   1.47894061   0.02056748
6350.00   1.48254049   0.02061531
6352.00   1.48999608   0.02062447
6354.00   1.49176276   0.02058818
6356.00   1.48698294   0.02062671
6358.00   1.48174632   0.02080573
6360.00   1.48680925   0.02137609
6362.00   1.49224532   0.02208143
6364.00   1.48456955   0.02254917
6366.00   1.45897770   0.02249852
6368.00   1.47715843   0.02246056
6370.00   1.49981153   0.02206356
6372.00   1.49739277   0.02128652
6374.00   1.47708952   0.02050634
6376.00   1.47811854   0.02038100
6378.00   1.47122991   0.02037629
6380.00   1.47689593   0.02040657
6382.00   1.47924769   0.02042988
6384.00   1.47597075   0.02044971
6386.00   1.48712385   0.02049671
6388.00   1.47934198   0.02043233
6390.00   1.48452079   0.02035338
6392.00   1.49957860   0.02033299
6394.00   1.50913680   0.02035419
6396.00   1.49476564   0.02028598
6398.00   1.47373068   0.02023694
6400.00   1.47629499   0.02027231
6402.00   1.48589802   0.02031613
6404.00   1.48929393   0.02036990
6406.00   1.50130117   0.02060113
6408.00   1.49696124   0.02191527
6410.00   1.50468707   0.02261166
%6412.00   1.55548227   0.02204854
6414.00   1.47917140   0.02040620
6416.00   1.48260498   0.02012540
6418.00   1.48630702   0.02015363
6420.00   1.48822033   0.02013600
6422.00   1.48735094   0.02004859
6424.00   1.48777044   0.02001169
6426.00   1.49956357   0.02003325
6428.00   1.49226487   0.01998050
6430.00   1.48707592   0.01996046
6432.00   1.48143148   0.01993358
6434.00   1.47121060   0.01985891
6436.00   1.48523200   0.01992144
6438.00   1.48753548   0.01994709
6440.00   1.49051189   0.01993951
6442.00   1.49264944   0.01991972
6444.00   1.48748505   0.01990481
6446.00   1.48147535   0.01985276
6448.00   1.47612655   0.01980681
6450.00   1.47495747   0.01978857
6452.00   1.47306311   0.01978580
6454.00   1.46463883   0.01977157
6456.00   1.46626127   0.01975542
6458.00   1.47150671   0.01977938
6460.00   1.47390020   0.01982015
6462.00   1.46912766   0.01984226
6464.00   1.45826149   0.01982730
6466.00   1.46002066   0.01987487
6468.00   1.46069908   0.01991530
6470.00   1.46055698   0.01991638
6472.00   1.45537984   0.01984329
6474.00   1.43801820   0.01967688
6476.00   1.41370332   0.01950695
6478.00   1.41663969   0.01943415
6480.00   1.42850220   0.01941047
6482.00   1.43381059   0.01939393
6484.00   1.43158484   0.01937980
6486.00   1.42329061   0.01930328
6488.00   1.42901647   0.01931931
6490.00   1.43331099   0.01935565
6492.00   1.42834222   0.01936597
6494.00   1.42517745   0.01939930
6496.00   1.41953981   0.01951692
6498.00   1.42392242   0.01965595
6500.00   1.43213570   0.01976328
6502.00   1.43345129   0.01980626
6504.00   1.41924584   0.01978325
6506.00   1.42316663   0.01971417
6508.00   1.42942774   0.01962620
6510.00   1.43667948   0.01955074
6512.00   1.43824947   0.01946564
6514.00   1.41199684   0.01925300
6516.00   1.40231609   0.01912424
6518.00   1.38957727   0.01903199
6520.00   1.37852705   0.01898714
6522.00   1.38001251   0.01900966
6524.00   1.40311015   0.01911361
6526.00   1.39876223   0.01912229
6528.00   1.38205993   0.01912295
6530.00   1.36367905   0.01913902
6532.00   1.35434055   0.01917708
6534.00   1.36846733   0.01927560
6536.00   1.37508202   0.01929252
6538.00   1.36996901   0.01922273
6540.00   1.36097908   0.01910610
6542.00   1.35609758   0.01899167
6544.00   1.34123838   0.01887035
6546.00   1.33227062   0.01879229
6548.00   1.33433187   0.01879205
6550.00   1.33533764   0.01883342
6552.00   1.32335961   0.01885820
6554.00   1.32604313   0.01888754
6556.00   1.33186352   0.01890651
6558.00   1.33243310   0.01893924
6560.00   1.33351994   0.01899080
6562.00   1.34363210   0.01903173
6564.00   1.33453500   0.01893139
6566.00   1.32988048   0.01887920
6568.00   1.32701576   0.01882835
6570.00   1.32514608   0.01875341
6572.00   1.32705700   0.01868204
6574.00   1.34113038   0.01877176
6576.00   1.34134948   0.01878573
6578.00   1.33251643   0.01876683
6580.00   1.32876241   0.01878268
6582.00   1.34248638   0.01885933
6584.00   1.33594668   0.01876895
6586.00   1.32666719   0.01864238
6588.00   1.32953250   0.01859227
6590.00   1.34256709   0.01862798
6592.00   1.34707439   0.01864913
6594.00   1.34892786   0.01865013
6596.00   1.36547363   0.01876367
6598.00   1.37481654   0.01888867
6600.00   1.36633003   0.01920513
6602.00   1.35615301   0.02011166
6604.00   1.38389146   0.01970955
6606.00   1.39348352   0.02085995
6608.00   1.39298403   0.01893090
6610.00   1.39826870   0.01888721
6612.00   1.41086817   0.02078614
6614.00   1.39279020   0.02014464
6616.00   1.37470734   0.01982224
6618.00   1.36746836   0.01936799
6620.00   1.37019968   0.01880967
6622.00   1.37198400   0.01865305
6624.00   1.37571251   0.01861357
6626.00   1.38009965   0.01862662
6628.00   1.38677967   0.01865449
6630.00   1.39278793   0.01867429
6632.00   1.38224840   0.01864594
6634.00   1.37722015   0.01860608
6636.00   1.38761747   0.01862474
6638.00   1.40130377   0.01866498
6640.00   1.40505445   0.01867276
6642.00   1.41257107   0.01869001
6644.00   1.40296555   0.01864244
6646.00   1.38981736   0.01856299
6648.00   1.38094604   0.01850357
6650.00   1.38052952   0.01850534
6652.00   1.39390624   0.01855288
6654.00   1.40312421   0.01858585
6656.00   1.40515935   0.01859322
6658.00   1.40352964   0.01859034
6660.00   1.40477407   0.01860216
6662.00   1.41254652   0.01863499
6664.00   1.40475452   0.01858675
6666.00   1.40261853   0.01856209
6668.00   1.41255236   0.01859283
6670.00   1.42456043   0.01863237
6672.00   1.41262138   0.01856993
6674.00   1.41100633   0.01856511
6676.00   1.41124058   0.01846948
6678.00   1.41044331   0.01857110
6680.00   1.41295874   0.01931708
6682.00   1.41889942   0.02026123
6684.00   1.42306626   0.01978955
6686.00   1.42632616   0.01912249
6688.00   1.42733717   0.01888217
6690.00   1.42370212   0.01855639
6692.00   1.42992461   0.01857188
6694.00   1.42911232   0.01853550
6696.00   1.42881644   0.01851228
6698.00   1.42906702   0.01853405
6700.00   1.41878402   0.01851824
6702.00   1.41305876   0.01851130
6704.00   1.40705144   0.01855410
6706.00   1.39989722   0.01860417
6708.00   1.39670932   0.01863867
6710.00   1.40763795   0.01868510
6712.00   1.40064955   0.01869820
6714.00   1.40842879   0.01870046
6716.00   1.40677273   0.01858662
6718.00   1.38583136   0.01837656
6720.00   1.37998736   0.01832621
6722.00   1.39844167   0.01838926
6724.00   1.41495168   0.01844095
6726.00   1.41666567   0.01842228
6728.00   1.40672791   0.01835463
6730.00   1.40822840   0.01836061
6732.00   1.40998447   0.01836749
6734.00   1.40984392   0.01836368
6736.00   1.39843941   0.01832707
6738.00   1.38017178   0.01827017
6740.00   1.39613712   0.01828270
6742.00   1.39708853   0.01830662
6744.00   1.39791739   0.01834533
6746.00   1.38946760   0.01836239
6748.00   1.36863601   0.01834642
6750.00   1.37496102   0.01839720
6752.00   1.38198149   0.01842645
6754.00   1.38551760   0.01838338
6756.00   1.38478339   0.01827843
6758.00   1.38123930   0.01820762
6760.00   1.37949896   0.01841078
6762.00   1.32580471   0.01885567
6764.00   1.26157248   0.01938926
6766.00   1.23838365   0.01983383
6768.00   1.28735614   0.02003952
6770.00   1.36454809   0.01994741
6772.00   1.37916434   0.01910437
6774.00   1.37384713   0.01834009
6776.00   1.37310016   0.01803864
6778.00   1.37801182   0.01803124
6780.00   1.38511217   0.01809613
6782.00   1.37800694   0.01821735
6784.00   1.34493351   0.01834107
6786.00   1.30798662   0.01844955
6788.00   1.30917203   0.01855605
6790.00   1.34737492   0.01867152
6792.00   1.35442007   0.01849236
6794.00   1.35322094   0.01818483
6796.00   1.35749149   0.01810340
6798.00   1.35913646   0.01860743
6800.00   1.36173117   0.01978124
6802.00   1.36310160   0.01905339
6804.00   1.37274110   0.01799382
6806.00   1.38255751   0.01785772
6808.00   1.36742342   0.01790392
6810.00   1.37713611   0.01790378
6812.00   1.36982679   0.01787844
6814.00   1.36938870   0.01791079
6816.00   1.37984693   0.01797701
6818.00   1.36222374   0.01789965
6820.00   1.35472262   0.01788515
6822.00   1.35337746   0.01789989
6824.00   1.35111344   0.01795286
6826.00   1.34583759   0.01805742
6828.00   1.34587955   0.01821917
6830.00   1.34987068   0.01843093
6832.00   1.36034000   0.01864417
6834.00   1.36765468   0.01874007
6836.00   1.36641419   0.01865520
6838.00   1.36710894   0.01846061
6840.00   1.36230659   0.01828290
6842.00   1.36139119   0.01809408
6844.00   1.35782850   0.01792263
6846.00   1.34839630   0.01781637
6848.00   1.35239089   0.01783073
6850.00   1.35152674   0.01781943
6852.00   1.35106814   0.01778055
6854.00   1.35059834   0.01772765
6856.00   1.34676445   0.01768841
6858.00   1.33277607   0.01766689
6860.00   1.33662891   0.01797641
6862.00   1.34219253   0.01831990
6864.00   1.34458256   0.01856130
6866.00   1.34259093   0.01864114
6868.00   1.32224572   0.01833078
6870.00   1.31324542   0.01858903
6872.00   1.30135822   0.01949074
6874.00   1.28502381   0.02046778
6876.00   1.27467632   0.02084297
6878.00   1.29422712   0.02060306
6880.00   1.29653442   0.02000800
6882.00   1.29808009   0.01943486
6884.00   1.30763674   0.01900052
6886.00   1.32071269   0.01859675
6888.00   1.31207991   0.01828515
6890.00   1.30769908   0.01838308
6892.00   1.30929160   0.01870921
6894.00   1.30944490   0.01895710
6896.00   1.29895055   0.01886895
6898.00   1.29628193   0.01864130
6900.00   1.30081248   0.01857522
6902.00   1.30831695   0.01863998
6904.00   1.31701672   0.01870632
6906.00   1.32649159   0.01862813
6908.00   1.31125212   0.01838566
6910.00   1.28639877   0.01815891
6912.00   1.27708495   0.01809089
6914.00   1.28534114   0.01812734
6916.00   1.28504932   0.01802452
6918.00   1.28719747   0.01805925
6920.00   1.29945540   0.01825540
6922.00   1.29965174   0.01834347
6924.00   1.28079605   0.01825051
6926.00   1.26642644   0.01825849
6928.00   1.26410687   0.01808733
6930.00   1.26295269   0.01774899
6932.00   1.26417100   0.01746347
6934.00   1.26599514   0.01739290
6936.00   1.25716412   0.01746698
6938.00   1.23782063   0.01747994
6940.00   1.23342133   0.01746560
6942.00   1.24324214   0.01745162
6944.00   1.25569713   0.01747994
6946.00   1.25876617   0.01761997
6948.00   1.24508405   0.01761840
6950.00   1.23613238   0.01749122
6952.00   1.24062181   0.01742375
6954.00   1.25374067   0.01749419
6956.00   1.25382817   0.01735844
6958.00   1.24596095   0.01704509
6960.00   1.23751521   0.01690638
6962.00   1.23859406   0.01697231
6964.00   1.25067282   0.01708206
6966.00   1.24977410   0.01705991
6968.00   1.23981071   0.01708182
6970.00   1.25009239   0.01714784
6972.00   1.26453292   0.01721155
6974.00   1.25432837   0.01722463
6976.00   1.23844135   0.01721682
6978.00   1.23942816   0.01725473
6980.00   1.24043214   0.01725536
6982.00   1.23596561   0.01719809
6984.00   1.23205471   0.01712313
6986.00   1.24812317   0.01714506
6988.00   1.22419536   0.01690594
6990.00   1.20998657   0.01674854
6992.00   1.21347630   0.01673305
6994.00   1.20938337   0.01669545
6996.00   1.21386087   0.01682668
6998.00   1.21673429   0.01681962
7000.00   1.20995033   0.01673288
7002.00   1.20397770   0.01670075
7004.00   1.21696329   0.01682346
7006.00   1.20154917   0.01677079
7008.00   1.19910872   0.01671430
7010.00   1.19862211   0.01675358
7012.00   1.19745386   0.01682033
7014.00   1.20633757   0.01672222
7016.00   1.20123959   0.01667883
7018.00   1.19408119   0.01663585
7020.00   1.19395065   0.01661768
7022.00   1.19758952   0.01663761
7024.00   1.18912947   0.01667438
7026.00   1.18507612   0.01654174
7028.00   1.18193781   0.01653550
7030.00   1.18148124   0.01668573
7032.00   1.18178666   0.01682693
7034.00   1.17525423   0.01665264
7036.00   1.18686497   0.01666592
7038.00   1.18992412   0.01670878
7040.00   1.18039286   0.01663896
7042.00   1.16841042   0.01650867
7044.00   1.17540944   0.01669658
7046.00   1.18293750   0.01676111
7048.00   1.18529725   0.01675069
7050.00   1.18071258   0.01670234
7052.00   1.17307436   0.01667456
7054.00   1.17226470   0.01675601
7056.00   1.18613994   0.01676556
7058.00   1.17728353   0.01667692
7060.00   1.16910541   0.01665097
7062.00   1.18886411   0.01684661
7064.00   1.20915890   0.01721168
7066.00   1.23684835   0.01766764
7068.00   1.27560270   0.01825462
7070.00   1.29641807   0.01862805
7072.00   1.27517903   0.01843968
7074.00   1.24800003   0.01772436
7076.00   1.19776595   0.01702096
7078.00   1.16224670   0.01662182
7080.00   1.15599716   0.01654623
7082.00   1.16787481   0.01658688
7084.00   1.15316999   0.01648355
7086.00   1.14704287   0.01648637
7088.00   1.13817537   0.01648304
7090.00   1.13376963   0.01645999
7092.00   1.14701951   0.01647909
7094.00   1.15918601   0.01660434
7096.00   1.15564775   0.01649789
7098.00   1.14482129   0.01640259
7100.00   1.13672721   0.01638128
7102.00   1.13789177   0.01633363
7104.00   1.14339530   0.01633021
7106.00   1.13691187   0.01639116
7108.00   1.13101733   0.01630287
7110.00   1.13087237   0.01623382
7112.00   1.13188040   0.01658303
7114.00   1.13831317   0.01679251
7116.00   1.13836062   0.01646802
7118.00   1.12269342   0.01616291
7120.00   1.10163653   0.01615685
7122.00   1.10202062   0.01617066
7124.00   1.11985505   0.01625135
7126.00   1.11733866   0.01623375
7128.00   1.11466038   0.01622622
7130.00   1.12607372   0.01627639
7132.00   1.14140189   0.01628744
7134.00   1.12337577   0.01618225
7136.00   1.11813223   0.01620376
7138.00   1.12163126   0.01624034
7140.00   1.12226677   0.01620126
7142.00   1.11638856   0.01616211
7144.00   1.11956894   0.01634476
7146.00   1.12750924   0.01641363
7148.00   1.12122917   0.01631082
7150.00   1.09982908   0.01614678
7152.00   1.10041130   0.01617387
7154.00   1.10125685   0.01613294
7156.00   1.10951912   0.01620772
7158.00   1.12191534   0.01633305
7160.00   1.12931514   0.01637677
7162.00   1.11693537   0.01624448
7164.00   1.11467779   0.01617586
7166.00   1.11908054   0.01624263
7168.00   1.11677778   0.01624726
7170.00   1.10085642   0.01609371
7172.00   1.09162855   0.01626073
7174.00   1.09332252   0.01629371
7176.00   1.09391403   0.01630352
7178.00   1.08943856   0.01634746
7180.00   1.08184254   0.01640617
7182.00   1.07585049   0.01627285
7184.00   1.07647228   0.01634407
7186.00   1.09066010   0.01679090
7188.00   1.10014093   0.01704244
7190.00   1.08451569   0.01657018
7192.00   1.06807458   0.01646926
7194.00   1.06980669   0.01643859
7196.00   1.06646860   0.01633524
7198.00   1.05815399   0.01622012
7200.00   1.05857468   0.01622527
7202.00   1.05601132   0.01607260
7204.00   1.07312262   0.01625321
7206.00   1.07746756   0.01639741
7208.00   1.07229555   0.01644201
7210.00   1.08427858   0.01655588
7212.00   1.07652020   0.01639979
7214.00   1.07881534   0.01624367
7216.00   1.08422410   0.01611390
7218.00   1.08089852   0.01602191
7220.00   1.06189787   0.01597718
7222.00   1.05871260   0.01593126
7224.00   1.06554759   0.01588326
7226.00   1.06444299   0.01585743
7228.00   1.05573213   0.01585474
7230.00   1.06016004   0.01585438
7232.00   1.06829274   0.01596418
7234.00   1.07560480   0.01614562
7236.00   1.07967722   0.01653218
7238.00   1.07370460   0.01707336
7240.00   1.04764688   0.01749733
7242.00   1.04760849   0.01785986
7244.00   1.04272497   0.01812792
7246.00   1.04138172   0.01820652
7248.00   1.05042636   0.01803501
7250.00   1.06040871   0.01762941
7252.00   1.06435490   0.01716611
7254.00   1.06869590   0.01678752
7256.00   1.06295383   0.01653345
7258.00   1.04618943   0.01636573
7260.00   1.04222023   0.01619281
7262.00   1.04905427   0.01604438
7264.00   1.05493796   0.01598049
7266.00   1.05804145   0.01597819
7268.00   1.05882919   0.01600687
7270.00   1.05252934   0.01606189
7272.00   1.06256354   0.01655998
7274.00   1.07405818   0.01724380
7276.00   1.07766056   0.01782153
7278.00   1.07425940   0.01820558
7280.00   1.08520114   0.01884761
7282.00   1.08933556   0.01895880
7284.00   1.10049629   0.01859417
7286.00   1.12374127   0.01816862
7288.00   1.14925301   0.01801563
7290.00   1.13770878   0.01747828
7292.00   1.10231650   0.01681309
7294.00   1.06806147   0.01637513
7296.00   1.05371284   0.01626148
7298.00   1.06262672   0.01631274
7300.00   1.06485021   0.01620368
7302.00   1.06851852   0.01637820
7304.00   1.06670260   0.01649959
7306.00   1.05663931   0.01641901
7308.00   1.04495680   0.01624033
7310.00   1.06629121   0.01644605
7312.00   1.09914851   0.01681247
7314.00   1.09996903   0.01722782
7316.00   1.07385135   0.01750063
7318.00   1.06297421   0.01749006
7320.00   1.06538546   0.01767556
7322.00   1.08465159   0.01753877
7324.00   1.09451258   0.01708399
7326.00   1.09323359   0.01665964
7328.00   1.10288715   0.01675782
7330.00   1.10716736   0.01665599
7332.00   1.09835041   0.01674419
7334.00   1.09766340   0.01677436
7336.00   1.10642004   0.01675944
7338.00   1.10121357   0.01706736
7340.00   1.10984373   0.01758773
7342.00   1.11021674   0.01774551
7344.00   1.11069286   0.01774467
7346.00   1.11709917   0.01766011
7348.00   1.12337768   0.01720289
7350.00   1.11802566   0.01648417
7352.00   1.11368740   0.01614051
7354.00   1.10932171   0.01618765
7356.00   1.10540485   0.01638603
7358.00   1.10969257   0.01646590
7360.00   1.10085285   0.01637636
7362.00   1.08327293   0.01629342
7364.00   1.07350719   0.01635468
7366.00   1.08210707   0.01659543
7368.00   1.10126531   0.01690076
7370.00   1.10972250   0.01716784
7372.00   1.10659635   0.01724427
7374.00   1.09717453   0.01706179
7376.00   1.09141803   0.01669054
7378.00   1.10387719   0.01642300
7380.00   1.09959614   0.01608873
7382.00   1.09109700   0.01588285
7384.00   1.09041727   0.01588065
7386.00   1.10206735   0.01603699
7388.00   1.11155450   0.01618296
7390.00   1.10954964   0.01634203
7392.00   1.10527456   0.01627288
7394.00   1.10478640   0.01617040
7396.00   1.10813022   0.01632949
7398.00   1.10191429   0.01659925
7400.00   1.10757101   0.01667052
7402.00   1.11305177   0.01670071
7404.00   1.11102271   0.01672505
7406.00   1.10240316   0.01668541
7408.00   1.10460603   0.01649951
7410.00   1.10559714   0.01625369
7412.00   1.10468590   0.01610570
7414.00   1.09890425   0.01598707
7416.00   1.08641148   0.01574365
7418.00   1.07886028   0.01572049
7420.00   1.07976866   0.01571099
7422.00   1.07948756   0.01569097
7424.00   1.07777154   0.01568810
7426.00   1.08197987   0.01575064
7428.00   1.08745015   0.01585931
7430.00   1.08784854   0.01589789
7432.00   1.08591402   0.01590906
7434.00   1.08099520   0.01593948
7436.00   1.07011282   0.01600592
7438.00   1.07207358   0.01606195
7440.00   1.07830358   0.01607837
7442.00   1.07428586   0.01603777
7444.00   1.06312454   0.01594215
7446.00   1.06688488   0.01581352
7448.00   1.07285893   0.01569158
7450.00   1.07274759   0.01564398
7452.00   1.06629860   0.01561391
7454.00   1.05678737   0.01557841
7456.00   1.04895723   0.01559860
7458.00   1.05242443   0.01561686
7460.00   1.05222356   0.01563031
7462.00   1.04803205   0.01565597
7464.00   1.04397440   0.01570029
7466.00   1.04442978   0.01574275
7468.00   1.04189599   0.01579783
7470.00   1.02976799   0.01585218
7472.00   1.01863825   0.01588432
7474.00   1.01841986   0.01590272
7476.00   1.02653897   0.01597494
7478.00   1.02911747   0.01605590
7480.00   1.03033137   0.01610164
7482.00   1.03213346   0.01610682
7484.00   1.03282082   0.01607702
7486.00   1.02352810   0.01600517
7488.00   1.01120174   0.01585402
7490.00   1.01926470   0.01576483
7492.00   1.03028572   0.01567554
7494.00   1.02173460   0.01551733
7496.00   1.01038325   0.01548341
7498.00   1.01002133   0.01547936
7500.00   1.01732528   0.01547676
7502.00   1.02022743   0.01544810
7504.00   1.01212680   0.01539930
7506.00   1.02080512   0.01544403
7508.00   1.01660192   0.01537752
7510.00   1.01049387   0.01533132
7512.00   1.00649440   0.01532870
7514.00   1.00343668   0.01532882
7516.00   1.00205195   0.01536253
7518.00   1.00140989   0.01543792
7520.00   0.99519420   0.01570805
7522.00   0.99101418   0.01610149
7524.00   1.00042140   0.01640360
7526.00   1.00205386   0.01650550
7528.00   0.98468310   0.01650640
7530.00   0.97651559   0.01632784
7532.00   0.98326617   0.01599734
7534.00   0.98798066   0.01566084
7536.00   0.98740608   0.01552965
7538.00   0.98769861   0.01544870
7540.00   0.98139858   0.01534150
7542.00   0.97401649   0.01523519
7544.00   0.98190945   0.01523619
7546.00   0.98664027   0.01527687
7548.00   0.98335630   0.01524649
7550.00   0.97488403   0.01518103
7552.00   0.96511984   0.01514197
7554.00   0.95705384   0.01517465
7556.00   0.96191716   0.01526276
7558.00   0.97101593   0.01534042
7560.00   0.98029232   0.01537962
7562.00   0.98674989   0.01545090
7564.00   0.98845863   0.01572080
7566.00   1.00184858   0.01589638
7568.00   1.00951755   0.01607303
7570.00   1.00186920   0.01626021
7572.00   0.98656511   0.01641003
7574.00   0.99383926   0.01641945
7576.00   0.99889952   0.01646155
7578.00   0.99958324   0.01620995
7580.00   0.99971056   0.01585793
7582.00   0.99980706   0.01569267
7584.00   0.99009722   0.01580272
%7586.00   0.95369595   0.01565814
%7588.00   1.02436936   0.01625594
%7590.00   0.95253730   0.01551150
%7592.00   1.02404606   0.01552575
%7594.00   1.01439917   0.01543820
%7596.00   1.12724888   0.01756264
%7598.00   1.00600541   0.01776786
%7600.00   0.95857692   0.02035137
%7602.00   0.88803124   0.02362492
%7604.00   0.87187642   0.02848314
%7606.00   0.88355690   0.03199356
%7608.00   0.82563537   0.03359993
%7610.00   0.77043456   0.03408872
%7612.00   0.83068174   0.03442838
%7614.00   0.92657733   0.03408752
7616.00   0.97043639   0.03208363
7618.00   0.98326802   0.02805077
7620.00   0.97816682   0.02292929
7622.00   0.96427441   0.01914239
7624.00   0.97517997   0.01787731
7626.00   0.92472500   0.01782390
7628.00   0.88609022   0.01931775
7630.00   0.88814634   0.02130482
7632.00   0.90751117   0.02238486
7634.00   0.88603020   0.02237238
7636.00   0.90128469   0.02213193
7638.00   0.91941482   0.02177311
7640.00   0.91820043   0.02124895
7642.00   0.90091306   0.02049155
7644.00   0.88988638   0.02001887
7646.00   0.87779349   0.01951229
7648.00   0.87595445   0.01896981
7650.00   0.88365585   0.01848033
7652.00   0.88743573   0.01815956
7654.00   0.89837390   0.01792288
7656.00   0.91005462   0.01769394
7658.00   0.90228772   0.01750403
7660.00   0.88193512   0.01730917
7662.00   0.88672113   0.01696632
7664.00   0.88526887   0.01662619
7666.00   0.88604099   0.01648989
7668.00   0.88808745   0.01633926
7670.00   0.88868403   0.01605211
7672.00   0.88556242   0.01580847
7674.00   0.89414477   0.01560710
7676.00   0.88799113   0.01543981
7678.00   0.88310868   0.01535311
7680.00   0.89172554   0.01537528
7682.00   0.89910507   0.01547884
7684.00   0.90074617   0.01557753
7686.00   0.91095835   0.01563109
7688.00   0.91102028   0.01557913
7690.00   0.89120120   0.01542565
7692.00   0.88175279   0.01529665
7694.00   0.87915140   0.01526683
7696.00   0.86541849   0.01524753
7698.00   0.85559243   0.01525562
7700.00   0.86536193   0.01531079
7702.00   0.88019782   0.01533777
7704.00   0.87527084   0.01535163
7706.00   0.86677653   0.01530833
7708.00   0.85848218   0.01535654
7710.00   0.85378534   0.01571101
7712.00   0.87588739   0.01653367
7714.00   0.87535167   0.01724205
7716.00   0.86092263   0.01770480
7718.00   0.84325832   0.01775554
7720.00   0.83497149   0.01735505
7722.00   0.85591722   0.01694305
7724.00   0.85909557   0.01653068
7726.00   0.86402673   0.01609715
7728.00   0.86573005   0.01574532
7730.00   0.85119009   0.01559479
7732.00   0.85481715   0.01545694
7734.00   0.84594244   0.01512263
7736.00   0.83716542   0.01486754
7738.00   0.83222467   0.01478156
7740.00   0.82556635   0.01473941
7742.00   0.81258917   0.01452792
7744.00   0.81643528   0.01460900
7746.00   0.82328057   0.01514249
7748.00   0.81888312   0.01598543
7750.00   0.79925674   0.01678091
7752.00   0.80366069   0.01702760
7754.00   0.79933172   0.01699196
7756.00   0.79981661   0.01681832
7758.00   0.80515414   0.01645965
7760.00   0.79784685   0.01574031
7762.00   0.80266333   0.01550661
7764.00   0.80781180   0.01535668
7766.00   0.80852127   0.01514248
7768.00   0.80214518   0.01483365
7770.00   0.78882051   0.01452205
7772.00   0.79061419   0.01464565
7774.00   0.80101109   0.01478209
7776.00   0.80192399   0.01485022
7778.00   0.79199380   0.01488676
7780.00   0.79737043   0.01497587
7782.00   0.81555271   0.01501721
7784.00   0.81899315   0.01508039
7786.00   0.81074858   0.01501073
7788.00   0.80127829   0.01486399
7790.00   0.79579586   0.01513544
7792.00   0.79907769   0.01583750
7794.00   0.80594236   0.01630667
7796.00   0.80514795   0.01640768
7798.00   0.79339665   0.01622152
7800.00   0.78632611   0.01590616
7802.00   0.79804897   0.01528264
7804.00   0.80733585   0.01484653
7806.00   0.81049281   0.01482785
7808.00   0.80900484   0.01510568
7810.00   0.79667550   0.01513766
7812.00   0.78908062   0.01506533
7814.00   0.80067366   0.01503468
7816.00   0.81627917   0.01519671
7818.00   0.81638455   0.01564596
7820.00   0.81438488   0.01641776
7822.00   0.82238525   0.01682504
7824.00   0.82722551   0.01690415
7826.00   0.82035857   0.01672422
7828.00   0.80437046   0.01631345
7830.00   0.80975437   0.01538055
7832.00   0.80544615   0.01465135
7834.00   0.80087990   0.01438033
7836.00   0.79849267   0.01447448
7838.00   0.79673642   0.01464783
7840.00   0.80610847   0.01499151
7842.00   0.80486917   0.01498581
7844.00   0.80347615   0.01495289
7846.00   0.80379868   0.01503837
7848.00   0.80054146   0.01519391
7850.00   0.80002028   0.01545538
7852.00   0.81354970   0.01618691
7854.00   0.81855375   0.01671640
7856.00   0.81022114   0.01688192
7858.00   0.80349898   0.01697470
7860.00   0.79859370   0.01653517
7862.00   0.80211431   0.01592964
7864.00   0.81014746   0.01561148
7866.00   0.81859630   0.01568240
7868.00   0.82445550   0.01579255
7870.00   0.80611849   0.01574644
7872.00   0.80276847   0.01567668
7874.00   0.81585926   0.01574936
7876.00   0.82907486   0.01587088
7878.00   0.81799191   0.01565986
7880.00   0.81970978   0.01541831
7882.00   0.82355279   0.01533567
7884.00   0.82174689   0.01535287
7886.00   0.81602764   0.01543975
7888.00   0.82116061   0.01571453
7890.00   0.81114787   0.01566456
7892.00   0.81596923   0.01569191
7894.00   0.82328963   0.01570368
7896.00   0.82159758   0.01549975
7898.00   0.82402629   0.01493736
7900.00   0.81995326   0.01458901
7902.00   0.81761652   0.01455741
7904.00   0.81797576   0.01456974
7906.00   0.81838894   0.01445450
7908.00   0.81431264   0.01453021
7910.00   0.81107259   0.01551581
7912.00   0.79881328   0.01658178
7914.00   0.79259723   0.01730208
7916.00   0.80549949   0.01762626
7918.00   0.82010412   0.01800859
7920.00   0.81632137   0.01774499
7922.00   0.81178951   0.01683926
7924.00   0.81558490   0.01590576
7926.00   0.82742816   0.01565578
7928.00   0.83561820   0.01571972
7930.00   0.82852763   0.01549680
7932.00   0.81866735   0.01527472
7934.00   0.81218165   0.01517266
7936.00   0.80918932   0.01512494
7938.00   0.80537325   0.01485039
7940.00   0.80593127   0.01450119
7942.00   0.81349730   0.01438478
7944.00   0.82086974   0.01448923
7946.00   0.81922215   0.01461266
7948.00   0.82379109   0.01490753
7950.00   0.82920438   0.01516634
7952.00   0.83057290   0.01521525
7954.00   0.82821113   0.01506247
7956.00   0.82527238   0.01484219
7958.00   0.81223422   0.01441771
7960.00   0.80694771   0.01458494
7962.00   0.81240696   0.01528797
7964.00   0.82316011   0.01615476
7966.00   0.82889885   0.01674991
7968.00   0.82955331   0.01677871
7970.00   0.82471579   0.01655603
7972.00   0.82303661   0.01597596
7974.00   0.82142395   0.01517679
7976.00   0.80629921   0.01467778
7978.00   0.82058263   0.01510110
7980.00   0.82465619   0.01533761
7982.00   0.82835370   0.01539823
7984.00   0.83378226   0.01535128
7986.00   0.82216597   0.01507263
7988.00   0.81298751   0.01473469
7990.00   0.80965918   0.01541758
7992.00   0.82163763   0.01636498
7994.00   0.83901793   0.01680914
7996.00   0.82390594   0.01662131
7998.00   0.82981390   0.01671425
8000.00   0.83216840   0.01617341
8002.00   0.82848531   0.01526226
8004.00   0.82296926   0.01455353
8006.00   0.82032186   0.01440710
8008.00   0.82114571   0.01439467
8010.00   0.82416797   0.01454060
8012.00   0.82334381   0.01471097
8014.00   0.81893533   0.01480732
8016.00   0.82945466   0.01489219
8018.00   0.82790810   0.01500793
8020.00   0.83644885   0.01522897
%8022.00   0.85252190   0.01563208
%8024.00   0.86054927   0.01612379
8026.00   0.83930969   0.01624268
8028.00   0.81676817   0.01609194
8030.00   0.80936813   0.01594704
8032.00   0.81431931   0.01570137
8034.00   0.81850642   0.01517322
8036.00   0.81260973   0.01464615
8038.00   0.81266910   0.01441012
8040.00   0.81913328   0.01433057
8042.00   0.82418901   0.01429087
8044.00   0.81818342   0.01422413
8046.00   0.80146623   0.01411619
8048.00   0.79256701   0.01415795
8050.00   0.79678869   0.01432986
8052.00   0.80839235   0.01453033
8054.00   0.81374377   0.01462077
8056.00   0.79520345   0.01443420
8058.00   0.78569061   0.01446837
8060.00   0.79503012   0.01475804
8062.00   0.80680853   0.01501041
8064.00   0.79496258   0.01487695
8066.00   0.80094379   0.01499758
8068.00   0.80579352   0.01488213
8070.00   0.80200410   0.01457888
8072.00   0.79474086   0.01426507
8074.00   0.79768246   0.01414205
8076.00   0.80083418   0.01408376
8078.00   0.79785991   0.01412418
8080.00   0.79498464   0.01412603
8082.00   0.79186112   0.01406028
8084.00   0.78031117   0.01404684
8086.00   0.78638715   0.01410082
8088.00   0.79584622   0.01413721
8090.00   0.78799802   0.01412626
8092.00   0.77048939   0.01409239
8094.00   0.78601104   0.01410605
8096.00   0.77871591   0.01407163
8098.00   0.77084398   0.01418929
8100.00   0.76940304   0.01425915
8102.00   0.77130753   0.01418011
8104.00   0.76332808   0.01416463
8106.00   0.76881987   0.01412649
8108.00   0.77254063   0.01416629
8110.00   0.77049017   0.01415087
8112.00   0.76269794   0.01396869
8114.00   0.74966598   0.01364890
8116.00   0.74651140   0.01398870
8118.00   0.75272101   0.01577236
%8120.00   0.73575073   0.01389305
%8122.00   0.69433802   0.01519422
%8124.00   0.72612119   0.01437642
8126.00   0.74218941   0.01416437
8128.00   0.74602795   0.01401065
8130.00   0.74270135   0.01381876
8132.00   0.73978680   0.01373070
8134.00   0.74243516   0.01378914
8136.00   0.74657005   0.01392642
8138.00   0.73636603   0.01402329
8140.00   0.72298312   0.01397831
8142.00   0.72547609   0.01381486
8144.00   0.74071378   0.01391221
8146.00   0.74191910   0.01397005
8148.00   0.73504430   0.01390829
8150.00   0.73015422   0.01384651
8152.00   0.73377496   0.01393405
8154.00   0.73145199   0.01391121
8156.00   0.72844124   0.01388996
8158.00   0.72810930   0.01393488
8160.00   0.72585726   0.01393691
8162.00   0.71619099   0.01376035
8164.00   0.71977139   0.01376136
8166.00   0.72219896   0.01398550
8168.00   0.72105330   0.01412966
8170.00   0.72059005   0.01413087
8172.00   0.72607297   0.01414163
8174.00   0.71443051   0.01410149
8176.00   0.71385199   0.01406775
8178.00   0.72278172   0.01436346
8180.00   0.73023534   0.01505098
8182.00   0.72346729   0.01586206
8184.00   0.71567947   0.01621206
8186.00   0.72063988   0.01629033
8188.00   0.71708137   0.01623125
8190.00   0.70196915   0.01620849
8192.00   0.69951987   0.01639454
8194.00   0.70720226   0.01670002
8196.00   0.71838278   0.01686119
8198.00   0.72601104   0.01686642
8200.00   0.72677016   0.01668990
8202.00   0.72271949   0.01621727
8204.00   0.70614916   0.01560988
8206.00   0.70065641   0.01498916
8208.00   0.71163982   0.01455424
8210.00   0.72693133   0.01436598
8212.00   0.71700603   0.01421920
8214.00   0.71641034   0.01406293
8216.00   0.71477407   0.01388033
8218.00   0.71465445   0.01380852
8220.00   0.71819633   0.01388629
8222.00   0.71974969   0.01385256
8224.00   0.72564346   0.01395760
8226.00   0.73404121   0.01406620
8228.00   0.74108428   0.01425823
8230.00   0.74146008   0.01456507
8232.00   0.72948670   0.01474953
8234.00   0.69612199   0.01485530
8236.00   0.69798487   0.01482008
8238.00   0.72237891   0.01464642
8240.00   0.73396164   0.01440744
8242.00   0.73098207   0.01427339
8244.00   0.74055052   0.01430221
8246.00   0.74052459   0.01428706
8248.00   0.73156601   0.01418550
8250.00   0.72587973   0.01403972
8252.00   0.72971803   0.01380725
8254.00   0.72522646   0.01367674
8256.00   0.71838206   0.01363188
8258.00   0.71217322   0.01359353
8260.00   0.70734674   0.01351899
8262.00   0.70561427   0.01367237
8264.00   0.71659166   0.01390800
8266.00   0.72206664   0.01393183
8268.00   0.71439463   0.01373818
8270.00   0.69966507   0.01354051
8272.00   0.70026094   0.01342289
8274.00   0.70449281   0.01346723
8276.00   0.70635301   0.01386943
8278.00   0.70217246   0.01454391
8280.00   0.69272798   0.01518165
8282.00   0.69352371   0.01544162
8284.00   0.69893962   0.01579196
8286.00   0.70227998   0.01625460
8288.00   0.70384502   0.01647965
8290.00   0.70971638   0.01599537
8292.00   0.70465183   0.01601524
8294.00   0.70140034   0.01616601
8296.00   0.70440054   0.01639331
8298.00   0.70973015   0.01658516
8300.00   0.70653987   0.01654725
8302.00   0.69954634   0.01622546
8304.00   0.68741852   0.01576992
8306.00   0.68807560   0.01519597
8308.00   0.69977766   0.01459170
8310.00   0.68987370   0.01418620
8312.00   0.68991929   0.01405734
8314.00   0.69453043   0.01411276
8316.00   0.69828576   0.01403558
8318.00   0.70035619   0.01376164
8320.00   0.70850688   0.01374718
8322.00   0.71263742   0.01376412
8324.00   0.69874448   0.01369087
8326.00   0.68182689   0.01351012
8328.00   0.67912722   0.01330111
8330.00   0.69129252   0.01324244
8332.00   0.69941264   0.01316437
8334.00   0.70709276   0.01333098
8336.00   0.71581173   0.01352648
8338.00   0.72366685   0.01374893
8340.00   0.72163600   0.01481178
8342.00   0.71743298   0.01695621
8344.00   0.70739824   0.01831665
8346.00   0.69623429   0.01869255
8348.00   0.69031477   0.01856681
8350.00   0.68859690   0.01885592
8352.00   0.70424622   0.01765102
8354.00   0.70228678   0.01615100
8356.00   0.68386149   0.01519230
8358.00   0.67140555   0.01497945
8360.00   0.68399984   0.01456069
8362.00   0.68916225   0.01417700
8364.00   0.69032073   0.01407665
8366.00   0.69442374   0.01418887
8368.00   0.70594150   0.01425293
8370.00   0.71366864   0.01423631
8372.00   0.70859677   0.01392049
8374.00   0.69982028   0.01349837
8376.00   0.69427007   0.01328528
8378.00   0.69377524   0.01354887
8380.00   0.69168282   0.01412300
8382.00   0.69186544   0.01440618
8384.00   0.68775016   0.01449076
8386.00   0.68130559   0.01446089
8388.00   0.68176746   0.01431138
8390.00   0.68924218   0.01386674
8392.00   0.68795699   0.01341862
8394.00   0.69130105   0.01376573
8396.00   0.69721770   0.01504323
8398.00   0.68731737   0.01655544
8400.00   0.69285774   0.01700640
8402.00   0.69244081   0.01713136
8404.00   0.68565744   0.01685721
8406.00   0.68003201   0.01598575
8408.00   0.68625468   0.01435961
8410.00   0.69438362   0.01368511
8412.00   0.69137591   0.01405463
8414.00   0.69449633   0.01455671
8416.00   0.70421273   0.01464140
8418.00   0.68826634   0.01461092
8420.00   0.67996836   0.01453630
8422.00   0.66956645   0.01412203
8424.00   0.67265850   0.01386530
8426.00   0.68989676   0.01443729
8428.00   0.68687004   0.01618233
8430.00   0.67594385   0.01707458
8432.00   0.67218655   0.01734908
8434.00   0.66838360   0.01721011
8436.00   0.65926975   0.01666204
8438.00   0.66045845   0.01507459
8440.00   0.66818351   0.01375312
8442.00   0.67762226   0.01314784
8444.00   0.67718989   0.01306650
8446.00   0.66540414   0.01310203
8448.00   0.67183810   0.01337209
8450.00   0.66553473   0.01381818
8452.00   0.66264963   0.01411902
8454.00   0.66620415   0.01422644
8456.00   0.66999674   0.01419796
8458.00   0.65903306   0.01395191
8460.00   0.65984380   0.01384675
8462.00   0.66207409   0.01438797
8464.00   0.65995479   0.01523209
8466.00   0.65309900   0.01574385
8468.00   0.64821273   0.01577072
8470.00   0.64463830   0.01568329
8472.00   0.64491707   0.01503173
8474.00   0.64892370   0.01396581
8476.00   0.65397304   0.01312099
8478.00   0.65527195   0.01295545
8480.00   0.65192223   0.01290967
8482.00   0.64974695   0.01288807
8484.00   0.64968371   0.01285492
8486.00   0.64796060   0.01281869
8488.00   0.63912266   0.01281337
8490.00   0.63868529   0.01304373
8492.00   0.64680755   0.01336114
8494.00   0.65613824   0.01356794
8496.00   0.65612525   0.01352990
8498.00   0.64805931   0.01348827
8500.00   0.63484341   0.01350908
8502.00   0.62782210   0.01372620
8504.00   0.63187665   0.01406613
8506.00   0.64172357   0.01426690
8508.00   0.63704640   0.01426038
8510.00   0.63995832   0.01407390
8512.00   0.64526576   0.01362874
8514.00   0.64420271   0.01302861
8516.00   0.63208514   0.01263459
8518.00   0.62705332   0.01258161
8520.00   0.62473541   0.01259671
8522.00   0.63174939   0.01263013
8524.00   0.64431304   0.01266645
8526.00   0.64169902   0.01266327
8528.00   0.63578492   0.01259840
8530.00   0.63017899   0.01255889
8532.00   0.62927967   0.01254558
8534.00   0.63244748   0.01256625
8536.00   0.63082874   0.01268767
8538.00   0.63220179   0.01272323
8540.00   0.63341480   0.01271356
8542.00   0.63151962   0.01270542
8544.00   0.62679702   0.01275298
8546.00   0.62597901   0.01291180
8548.00   0.62698263   0.01307041
8550.00   0.63185030   0.01316499
8552.00   0.63674122   0.01318461
8554.00   0.63802242   0.01312672
8556.00   0.63944697   0.01292354
8558.00   0.63315129   0.01266998
8560.00   0.62672693   0.01250095
8562.00   0.62741226   0.01245922
8564.00   0.63625711   0.01250453
8566.00   0.63791084   0.01255067
8568.00   0.63596159   0.01253979
8570.00   0.63093609   0.01251965
8572.00   0.62708449   0.01252476
8574.00   0.62764060   0.01255787
8576.00   0.62432843   0.01254750
8578.00   0.62394160   0.01254729
8580.00   0.62241095   0.01252982
8582.00   0.62008959   0.01250100
8584.00   0.62069637   0.01250008
8586.00   0.62818819   0.01261494
8588.00   0.62974185   0.01267114
8590.00   0.62701851   0.01265728
8592.00   0.62380165   0.01264696
8594.00   0.62312359   0.01272858
8596.00   0.62001616   0.01274125
8598.00   0.61649156   0.01268837
8600.00   0.61452317   0.01266015
8602.00   0.61538661   0.01266421
8604.00   0.61875039   0.01262305
8606.00   0.61805934   0.01252146
8608.00   0.61752379   0.01248039
8610.00   0.62074047   0.01253697
8612.00   0.62218660   0.01264949
8614.00   0.60969132   0.01272963
8616.00   0.60611200   0.01292627
8618.00   0.60996670   0.01318751
8620.00   0.61740464   0.01349438
8622.00   0.62010169   0.01380465
8624.00   0.60787660   0.01405528
8626.00   0.60691148   0.01435009
8628.00   0.61277747   0.01462404
8630.00   0.61669010   0.01481097
8632.00   0.61686563   0.01488527
8634.00   0.62424964   0.01488599
8636.00   0.61897713   0.01469529
8638.00   0.61026335   0.01439849
8640.00   0.61280149   0.01408824
8642.00   0.62657434   0.01381293
8644.00   0.62252504   0.01351563
8646.00   0.62445444   0.01344258
8648.00   0.62203145   0.01354047
8650.00   0.61460060   0.01377219
8652.00   0.60515076   0.01409195
8654.00   0.59530497   0.01445494
8656.00   0.61265904   0.01473166
8658.00   0.61311597   0.01477896
8660.00   0.60433435   0.01472717
8662.00   0.60656005   0.01472561
8664.00   0.61183715   0.01463042
8666.00   0.60705215   0.01451341
8668.00   0.60561126   0.01437863
8670.00   0.60946369   0.01424618
8672.00   0.61254430   0.01411804
8674.00   0.60317963   0.01391890
8676.00   0.59947389   0.01367969
8678.00   0.60103601   0.01347541
8680.00   0.60665697   0.01333329
8682.00   0.61306638   0.01322829
8684.00   0.61075765   0.01308118
8686.00   0.60684562   0.01296129
8688.00   0.60466027   0.01281516
8690.00   0.60694951   0.01268340
8692.00   0.61326736   0.01264251
8694.00   0.61101991   0.01258366
8696.00   0.60741621   0.01252003
8698.00   0.60627240   0.01249997
8700.00   0.60471749   0.01250425
8702.00   0.59716964   0.01247322
8704.00   0.59495479   0.01248918
8706.00   0.60027671   0.01252245
8708.00   0.60660821   0.01252321
8710.00   0.60930187   0.01248901
8712.00   0.60786706   0.01245937
8714.00   0.60526955   0.01239663
8716.00   0.60667729   0.01233355
8718.00   0.60723925   0.01230494
8720.00   0.60385686   0.01230190
8722.00   0.59794497   0.01227219
8724.00   0.59347224   0.01222994
8726.00   0.58640373   0.01220354
8728.00   0.58763522   0.01221302
8730.00   0.59808660   0.01224739
8732.00   0.60241413   0.01226303
8734.00   0.60352844   0.01227662
8736.00   0.60698628   0.01230026
8738.00   0.60501492   0.01228787
8740.00   0.59635180   0.01224146
8742.00   0.59471112   0.01225656
8744.00   0.60056478   0.01229003
8746.00   0.59729320   0.01228325
8748.00   0.58800125   0.01223028
8750.00   0.58300036   0.01217744
8752.00   0.59325713   0.01222330
8754.00   0.59276539   0.01232351
8756.00   0.59071225   0.01278797
8758.00   0.58958417   0.01359190
8760.00   0.58900374   0.01447604
8762.00   0.58587557   0.01498932
8764.00   0.59564811   0.01596010
8766.00   0.59902078   0.01667012
8768.00   0.59784395   0.01671923
8770.00   0.59808064   0.01614719
8772.00   0.58943766   0.01586106
8774.00   0.58542651   0.01604679
8776.00   0.57737637   0.01619902
8778.00   0.57949400   0.01621703
8780.00   0.59913450   0.01617201
8782.00   0.58031833   0.01595376
8784.00   0.57907981   0.01516694
8786.00   0.58199942   0.01407492
8788.00   0.58713108   0.01327248
8790.00   0.59522623   0.01328061
8792.00   0.58266336   0.01334485
8794.00   0.58175844   0.01336664
8796.00   0.58473986   0.01324640
8798.00   0.58505982   0.01289567
8800.00   0.58138150   0.01232296
8802.00   0.58417922   0.01199544
8804.00   0.58564979   0.01193697
8806.00   0.59232497   0.01209854
8808.00   0.60049158   0.01232134
8810.00   0.59918982   0.01241798
8812.00   0.59173459   0.01233388
8814.00   0.59808999   0.01242372
8816.00   0.60504991   0.01245046
8818.00   0.60471433   0.01234977
8820.00   0.60042506   0.01242782
8822.00   0.60034287   0.01399311
8824.00   0.60249305   0.01661056
8826.00   0.60530621   0.01883970
8828.00   0.60278010   0.01998608
8830.00   0.58687609   0.01999320
8832.00   0.58285290   0.01982750
8834.00   0.58706278   0.01899880
8836.00   0.58711392   0.01745821
8838.00   0.58213526   0.01585368
8840.00   0.58884710   0.01575489
8842.00   0.59379774   0.01525635
8844.00   0.59003824   0.01418103
8846.00   0.58579826   0.01326537
8848.00   0.58787221   0.01311456
8850.00   0.59321386   0.01328135
8852.00   0.58551985   0.01332437
8854.00   0.59411240   0.01345869
8856.00   0.60329586   0.01337592
8858.00   0.59678906   0.01290353
8860.00   0.58559024   0.01240961
8862.00   0.57982206   0.01243980
8864.00   0.58813137   0.01324094
8866.00   0.59465951   0.01403382
8868.00   0.58545345   0.01423352
8870.00   0.57228136   0.01426572
8872.00   0.57857221   0.01411924
8874.00   0.58263451   0.01368941
8876.00   0.58023137   0.01295958
8878.00   0.57677132   0.01222580
8880.00   0.58140749   0.01245518
8882.00   0.57940775   0.01438140
8884.00   0.58382434   0.01646662
%8886.00   0.57157522   0.01777219
%8888.00   0.52901083   0.01803867
%8890.00   0.61121309   0.01798928
%8892.00   0.67977101   0.01869180
%8894.00   0.60403830   0.01694685
%8896.00   0.60639113   0.01367749
8898.00   0.57903624   0.01271263
8900.00   0.58622503   0.01353922
8902.00   0.57927656   0.01427802
8904.00   0.57093495   0.01462271
8906.00   0.56611854   0.01457150
8908.00   0.56181985   0.01425911
8910.00   0.56114602   0.01360515
8912.00   0.57375795   0.01282757
8914.00   0.57464582   0.01303377
8916.00   0.56260687   0.01458160
8918.00   0.55848199   0.01673329
8920.00   0.56450731   0.01792341
8922.00   0.56810212   0.01821657
8924.00   0.56997710   0.01786585
8926.00   0.57240391   0.01676243
8928.00   0.57596022   0.01447178
8930.00   0.56685758   0.01270676
8932.00   0.55766386   0.01220661
8934.00   0.55661124   0.01226426
8936.00   0.56185031   0.01223608
8938.00   0.56158930   0.01221636
8940.00   0.56059605   0.01283729
8942.00   0.56206423   0.01354431
8944.00   0.56233186   0.01390650
8946.00   0.55918288   0.01387017
8948.00   0.55502838   0.01381572
8950.00   0.56333381   0.01334118
8952.00   0.56948459   0.01303554
8954.00   0.56753176   0.01377946
8956.00   0.55730557   0.01542312
8958.00   0.54376912   0.01660763
8960.00   0.53748912   0.01679218
8962.00   0.55063587   0.01667776
8964.00   0.56400317   0.01605173
8966.00   0.56073236   0.01472336
8968.00   0.55004185   0.01313470
8970.00   0.54939896   0.01261066
8972.00   0.56310844   0.01251184
8974.00   0.57810283   0.01256115
8976.00   0.57712597   0.01260548
8978.00   0.54768831   0.01237946
8980.00   0.55349237   0.01231470
8982.00   0.56944084   0.01248190
8984.00   0.58432817   0.01297282
8986.00   0.59476167   0.01369825
8988.00   0.60402292   0.01419697
8990.00   0.59014839   0.01464747
8992.00   0.56575960   0.01483327
8994.00   0.54406029   0.01460678
8996.00   0.53625697   0.01411441
8998.00   0.54989988   0.01445237
9000.00   0.56963015   0.01480088
9002.00   0.57261741   0.01511755
9004.00   0.55822593   0.01533957
9006.00   0.54311562   0.01533428
9008.00   0.54795295   0.01470881
9010.00   0.55793029   0.01352401
9012.00   0.55691057   0.01259365
9014.00   0.55858845   0.01233429
9016.00   0.58584189   0.01250141
9018.00   0.58455712   0.01261298
9020.00   0.56944758   0.01258420
9022.00   0.55685115   0.01251886
9024.00   0.55717301   0.01250064
9026.00   0.56932890   0.01255187
9028.00   0.56244814   0.01264694
9030.00   0.55821490   0.01256504
9032.00   0.55537534   0.01242554
9034.00   0.55252814   0.01244305
9036.00   0.55153447   0.01277761
9038.00   0.55923080   0.01287271
9040.00   0.56739742   0.01284982
9042.00   0.57021314   0.01279370
9044.00   0.56495506   0.01283400
9046.00   0.55332994   0.01310299
9048.00   0.55193728   0.01329830
9050.00   0.55433464   0.01339835
9052.00   0.55701423   0.01348871
9054.00   0.55754787   0.01350559
9056.00   0.55494636   0.01315438
9058.00   0.55030125   0.01259123
9060.00   0.55727440   0.01229950
9062.00   0.56360430   0.01226969
9064.00   0.55849004   0.01232382
9066.00   0.54673702   0.01232304
9068.00   0.55416453   0.01245638
9070.00   0.55608815   0.01247077
9072.00   0.54790235   0.01243449
9074.00   0.53552276   0.01244836
9076.00   0.53095651   0.01245660
9078.00   0.53417677   0.01229257
9080.00   0.53824502   0.01223091
9082.00   0.53826880   0.01221200
9084.00   0.53371912   0.01213743
9086.00   0.53041798   0.01216383
9088.00   0.54410481   0.01237615
9090.00   0.53838950   0.01242149
9092.00   0.51898396   0.01234108
9094.00   0.51070249   0.01231773
9096.00   0.53233558   0.01235123
9098.00   0.53311151   0.01242478
9100.00   0.53048688   0.01259884
9102.00   0.53070706   0.01277365
9104.00   0.53111893   0.01281620
9106.00   0.52205968   0.01278990
9108.00   0.52324051   0.01257006
9110.00   0.51974136   0.01230658
9112.00   0.51394588   0.01208450
9114.00   0.51821584   0.01191933
9116.00   0.53327173   0.01180067
9118.00   0.53661233   0.01188197
9120.00   0.52870327   0.01189027
9122.00   0.51400203   0.01180059
9124.00   0.50106078   0.01177287
9126.00   0.51436585   0.01166124
9128.00   0.52610159   0.01163054
9130.00   0.53339070   0.01173365
9132.00   0.53293806   0.01192136
9134.00   0.52114683   0.01207126
9136.00   0.50621921   0.01207357
9138.00   0.49990830   0.01205143
9140.00   0.49683484   0.01198859
9142.00   0.50022262   0.01191482
9144.00   0.52121407   0.01191079
9146.00   0.52700335   0.01190084
9148.00   0.51876491   0.01171837
9150.00   0.51698560   0.01168079
9152.00   0.52803761   0.01199214
9154.00   0.53476471   0.01252895
9156.00   0.51605225   0.01272243
9158.00   0.49483958   0.01274076
9160.00   0.48841223   0.01270752
9162.00   0.49818507   0.01262257
9164.00   0.50498545   0.01230717
9166.00   0.50390446   0.01199518
9168.00   0.51024073   0.01184433
9170.00   0.51574737   0.01179849
9172.00   0.51521111   0.01179724
9174.00   0.52091068   0.01191416
9176.00   0.52459759   0.01211400
9178.00   0.51170486   0.01218227
9180.00   0.49919167   0.01214106
9182.00   0.50423485   0.01209366
9184.00   0.52134699   0.01213336
9186.00   0.51928085   0.01199548
9188.00   0.51137692   0.01185015
9190.00   0.50987375   0.01184807
9192.00   0.51818115   0.01198378
9194.00   0.51861948   0.01189948
9196.00   0.51353163   0.01181675
9198.00   0.51006967   0.01191029
9200.00   0.51251799   0.01205308
9202.00   0.51933575   0.01204220
9204.00   0.51639825   0.01189233
9206.00   0.52645642   0.01195318
9208.00   0.53491741   0.01206332
9210.00   0.53122300   0.01206878
9212.00   0.51638234   0.01196345
9214.00   0.52105099   0.01223649
9216.00   0.52381611   0.01241177
9218.00   0.52162701   0.01251778
9220.00   0.52098006   0.01258071
9222.00   0.52926952   0.01262183
9224.00   0.52926266   0.01269367
9226.00   0.52781719   0.01270297
9228.00   0.52744430   0.01260190
9230.00   0.52736282   0.01240190
9232.00   0.52655083   0.01220226
9234.00   0.54132050   0.01239031
9236.00   0.53784817   0.01232895
9238.00   0.51721376   0.01208856
9240.00   0.50042146   0.01190198
9242.00   0.51432395   0.01201092
9244.00   0.52830750   0.01218793
9246.00   0.53251773   0.01234739
9248.00   0.53067738   0.01235718
9250.00   0.52426761   0.01223233
9252.00   0.51098061   0.01214520
9254.00   0.51178282   0.01218187
9256.00   0.50673419   0.01197333
9258.00   0.50825524   0.01186046
9260.00   0.51596731   0.01195537
9262.00   0.50772560   0.01189743
9264.00   0.50736767   0.01187195
9266.00   0.50498313   0.01180230
9268.00   0.50955826   0.01185057
9270.00   0.51913029   0.01199054
9272.00   0.51054955   0.01186053
9274.00   0.50938755   0.01178970
9276.00   0.51634663   0.01195471
9278.00   0.52633536   0.01212557
9280.00   0.53000790   0.01215118
9282.00   0.51594090   0.01224406
9284.00   0.49356827   0.01225215
9286.00   0.49420920   0.01232700
9288.00   0.50404948   0.01241598
9290.00   0.50388342   0.01246274
9292.00   0.50095147   0.01256841
9294.00   0.50568038   0.01253476
9296.00   0.50750118   0.01259025
9298.00   0.51110226   0.01280464
9300.00   0.51981020   0.01328824
9302.00   0.51682693   0.01436523
9304.00   0.50783283   0.01612455
9306.00   0.50306916   0.01776801
9308.00   0.51455551   0.01972448
9310.00   0.54223210   0.02233556
9312.00   0.55102539   0.02501393
9314.00   0.53944373   0.02494586
9316.00   0.54010457   0.02423138
9318.00   0.53792375   0.02421797
9320.00   0.50616366   0.02505160
9322.00   0.48654369   0.02454834
9324.00   0.50921714   0.02360163
9326.00   0.52405626   0.02341453
9328.00   0.51250964   0.02345843
9330.00   0.49133721   0.02210259
9332.00   0.50795335   0.01830339
9334.00   0.54758257   0.01693960
9336.00   0.56526679   0.01774784
9338.00   0.55047643   0.01897911
9340.00   0.52849859   0.01928641
9342.00   0.53951639   0.01959351
9344.00   0.54477924   0.01944347
9346.00   0.50631726   0.01924466
9348.00   0.45149878   0.01901327
9350.00   0.45965973   0.01827479
9352.00   0.53754282   0.01626200
9354.00   0.60240883   0.01573006
9356.00   0.61512160   0.01622191
9358.00   0.57051617   0.01670860
9360.00   0.49879614   0.01660462
9362.00   0.49200931   0.01599777
9364.00   0.51023799   0.01512162
9366.00   0.54467148   0.01453614
9368.00   0.57115978   0.01511692
9370.00   0.54724187   0.01766807
9372.00   0.52620977   0.02582508
9374.00   0.50545698   0.03257592
9376.00   0.50084090   0.03509361
9378.00   0.52284569   0.03380161
9380.00   0.56801409   0.03320798
9382.00   0.52137297   0.03063349
9384.00   0.47380027   0.02520995
9386.00   0.46386608   0.01904152
9388.00   0.49257112   0.01569719
9390.00   0.52427202   0.01503255
9392.00   0.51294369   0.01431898
9394.00   0.51882762   0.01371512
9396.00   0.53572071   0.01344344
9398.00   0.54249603   0.01376304
9400.00   0.54167759   0.01470121
9402.00   0.53902364   0.01541795
9404.00   0.52695912   0.01557573
9406.00   0.51522332   0.01540072
9408.00   0.51667047   0.01513358
9410.00   0.53426850   0.01420451
9412.00   0.53505677   0.01380947
9414.00   0.51325911   0.01422029
9416.00   0.49450114   0.01523525
9418.00   0.50732416   0.01639582
9420.00   0.53908509   0.01731996
9422.00   0.54698378   0.01793469
9424.00   0.54775769   0.01794269
9426.00   0.55475837   0.01734813
9428.00   0.56609255   0.01645279
9430.00   0.53376698   0.01595518
9432.00   0.48730016   0.01590954
9434.00   0.48353887   0.01715539
9436.00   0.52779263   0.01938039
9438.00   0.58184910   0.02180775
9440.00   0.60706741   0.02451878
9442.00   0.57867068   0.02808421
9444.00   0.51497763   0.02956079
9446.00   0.46138868   0.02728393
9448.00   0.46585003   0.02046449
9450.00   0.50127286   0.01595858
9452.00   0.52947253   0.01478263
9454.00   0.55906135   0.01621095
9456.00   0.58162135   0.01854333
9458.00   0.57111013   0.02083228
9460.00   0.53541905   0.02228506
9462.00   0.53226388   0.02263409
9464.00   0.52125317   0.02125506
9466.00   0.50097793   0.01841282
9468.00   0.52701658   0.01592839
9470.00   0.56020349   0.01549295
9472.00   0.53525156   0.01712138
9474.00   0.51217198   0.02018267
9476.00   0.52624714   0.02307840
9478.00   0.53942400   0.02400956
9480.00   0.54041827   0.02470023
9482.00   0.54070544   0.02398300
9484.00   0.51829797   0.02166858
9486.00   0.47791716   0.01818216
9488.00   0.47590652   0.01498998
9490.00   0.52239239   0.01424631
9492.00   0.56088859   0.01426355
9494.00   0.58512193   0.01452414
9496.00   0.59029967   0.01524895
9498.00   0.54113758   0.01693547
9500.00   0.50865680   0.01966644
9502.00   0.49755681   0.02152707
9504.00   0.48938623   0.02213606
9506.00   0.47411060   0.02137769
9508.00   0.48508382   0.01853846
9510.00   0.51774013   0.01599353
9512.00   0.55653638   0.01466928
9514.00   0.58109683   0.01496022
9516.00   0.57969928   0.01633456
9518.00   0.56563532   0.01801794
9520.00   0.54619926   0.01993535
9522.00   0.52717012   0.02113437
9524.00   0.52117270   0.02116372
9526.00   0.52973932   0.01992283
9528.00   0.50476789   0.01761579
9530.00   0.52136415   0.01703472
9532.00   0.53748316   0.01696773
9534.00   0.54662657   0.01678188
9536.00   0.56216300   0.01636479
9538.00   0.57229894   0.01584512
9540.00   0.56071162   0.01548658
9542.00   0.56555504   0.01553208
9544.00   0.58053380   0.01574179
9546.00   0.57002825   0.01576629
9548.00   0.53226411   0.01638463
9550.00   0.52854347   0.01741377
9552.00   0.55212706   0.01823849
9554.00   0.57327074   0.01876762
9556.00   0.55625278   0.01924024
9558.00   0.49857521   0.01909452
9560.00   0.45857659   0.01758232
9562.00   0.48328808   0.01706393
9564.00   0.54716468   0.01863936
9566.00   0.56500143   0.02098189
9568.00   0.54774731   0.02263058
9570.00   0.52433187   0.02272648
9572.00   0.50847954   0.02133563
9574.00   0.50604481   0.01884222
9576.00   0.51586479   0.01601817
9578.00   0.53823382   0.01461127
9580.00   0.55346721   0.01443147
9582.00   0.54259324   0.01461115
9584.00   0.50890207   0.01448726
9586.00   0.48383328   0.01403718
9588.00   0.49618748   0.01380387
9590.00   0.50856900   0.01408129
9592.00   0.50437808   0.01465245
9594.00   0.48637548   0.01509095
9596.00   0.47797880   0.01495901
9598.00   0.48249626   0.01454106
9600.00   0.48517823   0.01409492
9602.00   0.48560247   0.01398901
9604.00   0.49017349   0.01439336
9606.00   0.50967962   0.01507409
9608.00   0.50764495   0.01556840
9610.00   0.49171153   0.01569047
9612.00   0.48356232   0.01538053
9614.00   0.49480414   0.01482440
9616.00   0.50012797   0.01460052
9618.00   0.49929461   0.01507922
9620.00   0.49867907   0.01576253
9622.00   0.49643216   0.01625348
9624.00   0.48899493   0.01636574
9626.00   0.47809353   0.01629084
9628.00   0.48069242   0.01564440
9630.00   0.47341862   0.01471277
9632.00   0.46625707   0.01390386
9634.00   0.48060510   0.01357679
9636.00   0.51511186   0.01361294
9638.00   0.51520139   0.01381440
9640.00   0.49500394   0.01404134
9642.00   0.47832528   0.01406567
9644.00   0.48385182   0.01379512
9646.00   0.49633250   0.01391375
9648.00   0.48743048   0.01392941
9650.00   0.47614160   0.01402097
9652.00   0.47944376   0.01409512
9654.00   0.50056368   0.01393645
9656.00   0.49928352   0.01394452
9658.00   0.49460998   0.01394218
9660.00   0.49125186   0.01385036
9662.00   0.48776218   0.01392062
9664.00   0.47937211   0.01453854
9666.00   0.47139511   0.01532224
9668.00   0.46347842   0.01554782
9670.00   0.46082863   0.01552971
9672.00   0.46276951   0.01545172
9674.00   0.46338865   0.01523242
9676.00   0.47526756   0.01494911
9678.00   0.48100552   0.01519457
9680.00   0.48150507   0.01578403
9682.00   0.48401546   0.01639169
9684.00   0.49630114   0.01676342
9686.00   0.48079887   0.01648351
9688.00   0.47659650   0.01581904
9690.00   0.48617730   0.01510185
9692.00   0.49475589   0.01472676
9694.00   0.47850510   0.01501483
9696.00   0.49195704   0.01612234
9698.00   0.49430385   0.01696283
9700.00   0.49348900   0.01739273
9702.00   0.49476409   0.01743541
9704.00   0.47671953   0.01699106
9706.00   0.48835227   0.01667132
9708.00   0.49999943   0.01590326
9710.00   0.49918532   0.01533127
9712.00   0.48908341   0.01556018
9714.00   0.49258626   0.01600214
9716.00   0.49478725   0.01751683
9718.00   0.48537245   0.01874159
9720.00   0.47894540   0.01931908
9722.00   0.48776755   0.01934935
9724.00   0.49358425   0.01926603
9726.00   0.49025282   0.01796557
9728.00   0.48977700   0.01643447
9730.00   0.49112794   0.01527665
9732.00   0.48773661   0.01482471
9734.00   0.47561932   0.01529085
9736.00   0.46950710   0.01592948
9738.00   0.45242098   0.01631729
9740.00   0.44365320   0.01657267
9742.00   0.46587369   0.01685910
9744.00   0.48361143   0.01642540
9746.00   0.46892640   0.01546415
9748.00   0.46509790   0.01499107
9750.00   0.47970000   0.01505519
9752.00   0.49197969   0.01495533
9754.00   0.47934484   0.01436134
9756.00   0.47221398   0.01403357
9758.00   0.46491313   0.01387154
9760.00   0.46534300   0.01394496
9762.00   0.48457375   0.01435344
9764.00   0.48490337   0.01442479
9766.00   0.47638699   0.01420928
9768.00   0.46474719   0.01397840
9770.00   0.45399395   0.01375526
9772.00   0.44796586   0.01338235
9774.00   0.46934053   0.01354040
9776.00   0.48552468   0.01391863
9778.00   0.48472497   0.01415058
9780.00   0.47091350   0.01409448
9782.00   0.46055472   0.01391706
9784.00   0.46017858   0.01426885
9786.00   0.45362803   0.01639440
9788.00   0.45302883   0.01945035
9790.00   0.46063927   0.02215086
9792.00   0.46094641   0.02345818
9794.00   0.45321390   0.02420704
9796.00   0.46899390   0.02413425
9798.00   0.48271397   0.02268254
9800.00   0.47535253   0.02012553
9802.00   0.45912644   0.01848279
9804.00   0.44830331   0.01798317
9806.00   0.44824955   0.01749112
9808.00   0.45171586   0.01689319
9810.00   0.45227575   0.01639956
9812.00   0.45292291   0.01615085
9814.00   0.44130266   0.01601533
9816.00   0.43972790   0.01584755
9818.00   0.44600382   0.01561367
9820.00   0.44601378   0.01535992
9822.00   0.41856733   0.01519640
9824.00   0.41299823   0.01506836
9826.00   0.42527929   0.01504819
9828.00   0.44004619   0.01503610
9830.00   0.44381842   0.01495393
9832.00   0.44210902   0.01497544
9834.00   0.44805634   0.01481564
9836.00   0.45393828   0.01475516
9838.00   0.44981003   0.01464916
9840.00   0.43356344   0.01433653
9842.00   0.42748681   0.01418927
9844.00   0.43199849   0.01505477
9846.00   0.44062817   0.01642539
9848.00   0.44170657   0.01742307
9850.00   0.43114695   0.01751409
9852.00   0.44129404   0.01750360
9854.00   0.44466266   0.01737832
9856.00   0.44337797   0.01630478
9858.00   0.44459999   0.01489927
9860.00   0.45242929   0.01466101
9862.00   0.44472620   0.01476213
9864.00   0.43831924   0.01463563
9866.00   0.43876949   0.01574176
9868.00   0.45111576   0.01910779
9870.00   0.47488523   0.02384020
9872.00   0.48381495   0.02539566
9874.00   0.45649132   0.02553985
9876.00   0.42935643   0.02497240
9878.00   0.42835626   0.02347336
9880.00   0.45270884   0.02014484
9882.00   0.44502363   0.01726803
9884.00   0.42751083   0.01596125
9886.00   0.42617929   0.01577190
9888.00   0.44425488   0.01616650
9890.00   0.45825049   0.01717229
9892.00   0.44294772   0.01839166
9894.00   0.44029534   0.01920989
9896.00   0.43715504   0.01944170
9898.00   0.43070436   0.01933408
9900.00   0.44201276   0.01945730
9902.00   0.43648887   0.01807328
9904.00   0.43198630   0.01652970
9906.00   0.42412627   0.01555732
9908.00   0.41926694   0.01603380
9910.00   0.44437084   0.01865363
9912.00   0.42481986   0.02257937
9914.00   0.41864094   0.02493749
9916.00   0.42867291   0.02591237
9918.00   0.43982640   0.02595317
9920.00   0.43548092   0.02510045
9922.00   0.42379487   0.02159005
9924.00   0.41421399   0.01828000
9926.00   0.41467547   0.01654506
9928.00   0.42492136   0.01628877
9930.00   0.43082413   0.01613791
9932.00   0.43243459   0.01600792
9934.00   0.43637028   0.01605659
9936.00   0.43748060   0.01682287
9938.00   0.42961851   0.01862947
9940.00   0.41564310   0.02103720
9942.00   0.41671690   0.02444761
9944.00   0.42236981   0.02775892
9946.00   0.42902470   0.02982600
9948.00   0.43625799   0.03004069
9950.00   0.44227073   0.02899381
9952.00   0.44948211   0.02837273
9954.00   0.44277084   0.02778059
9956.00   0.42688534   0.02760684
9958.00   0.41900000   0.02846022
9960.00   0.43706036   0.03018489
9962.00   0.44666556   0.03003077
9964.00   0.43797696   0.02829438
9966.00   0.41965935   0.02587924
9968.00   0.41002813   0.02399651
9970.00   0.41241363   0.02232679
9972.00   0.43025768   0.02133715
9974.00   0.44137454   0.02101896
9976.00   0.43702671   0.02095260
9978.00   0.42520443   0.02054969
9980.00   0.42903337   0.01963672
9982.00   0.42831126   0.01880910
9984.00   0.42709598   0.01823960
9986.00   0.43016788   0.01790106
9988.00   0.43871716   0.01762755
9990.00   0.44397494   0.01750501
9992.00   0.43682930   0.01737681
9994.00   0.42555073   0.01749483
9996.00   0.42061266   0.01802208
9998.00   0.42864028   0.01887489
10000.00   0.43689129   0.01944302
10002.00   0.43929562   0.01972558
10004.00   0.42910150   0.01967741
10006.00   0.41803238   0.02041440
10008.00   0.43650484   0.02388336
10010.00   0.44507822   0.02996811
10012.00   0.42242265   0.03391469
10014.00   0.40357494   0.03571966
10016.00   0.41461816   0.03589043
10018.00   0.44236788   0.03480884
10020.00   0.43774664   0.03098482
10022.00   0.41881832   0.02750910
10024.00   0.41249517   0.02609631
10026.00   0.42508605   0.02651502
10028.00   0.41920474   0.02626536
10030.00   0.43578473   0.02564553
10032.00   0.43497369   0.02392308
10034.00   0.42529061   0.02162979
10036.00   0.42525828   0.01995964
10038.00   0.43668592   0.02007460
10040.00   0.43193451   0.02065638
10042.00   0.43092918   0.02136011
10044.00   0.43374193   0.02178062
10046.00   0.43408790   0.02174977
10048.00   0.43220618   0.02156887
10050.00   0.42499590   0.02080448
10052.00   0.42192850   0.01984070
10054.00   0.42063656   0.01950078
10056.00   0.41891015   0.02047721
10058.00   0.43891403   0.02248629
10060.00   0.43392837   0.02376096
10062.00   0.42576051   0.02447889
10064.00   0.41965881   0.02479792
10066.00   0.41329119   0.02478732
10068.00   0.42349616   0.02415619
10070.00   0.41484603   0.02326700
10072.00   0.41186932   0.02266732
10074.00   0.42124334   0.02250203
10076.00   0.43095672   0.02285478
10078.00   0.41537762   0.02523935
10080.00   0.40810218   0.02948581
10082.00   0.41428027   0.03232230
10084.00   0.42080951   0.03330763
10086.00   0.41069904   0.03348563
10088.00   0.43060732   0.03213690
10090.00   0.40450880   0.02793005
10092.00   0.39726046   0.02389819
10094.00   0.41401696   0.02217903
10096.00   0.39546552   0.02165690
10098.00   0.39329553   0.02207202
10100.00   0.40470910   0.02414356
10102.00   0.40804043   0.02595545
10104.00   0.40504262   0.02680428
10106.00   0.42403841   0.02735747
10108.00   0.43585882   0.02722968
10110.00   0.41783479   0.02569637
10112.00   0.39396074   0.02363748
10114.00   0.38541362   0.02217800
10116.00   0.39230406   0.02193845
10118.00   0.40109873   0.02323120
10120.00   0.40102753   0.02851368
10122.00   0.40512058   0.03382513
10124.00   0.41146445   0.03690154
10126.00   0.38605189   0.03774374
10128.00   0.38467741   0.03807247
10130.00   0.39208159   0.03561942
10132.00   0.40633127   0.03111131
10134.00   0.42131576   0.02668219
10136.00   0.41785455   0.02533407
10138.00   0.43089855   0.02493282
10140.00   0.42148718   0.02485307
10142.00   0.40184858   0.02484866
10144.00   0.39783454   0.02508181
10146.00   0.42477277   0.02596138
10148.00   0.40751699   0.02699406
10150.00   0.40149054   0.02878344
10152.00   0.40686199   0.03040087
10154.00   0.41067800   0.03110185
10156.00   0.43586919   0.03195764
10158.00   0.43078890   0.03196793
10160.00   0.40381420   0.03072766
10162.00   0.39169130   0.02916349
10164.00   0.41726342   0.02877059
10166.00   0.41144681   0.02939385
10168.00   0.39717984   0.03462308
10170.00   0.38331202   0.03946711
10172.00   0.39234725   0.04232084
10174.00   0.43312836   0.04336555
10176.00   0.43208143   0.04354211
10178.00   0.42184505   0.04074068
10180.00   0.40950742   0.03629014
10182.00   0.40504071   0.03249210
10184.00   0.41717818   0.03210483
10186.00   0.44620553   0.03550898
10188.00   0.43512061   0.03804940
10190.00   0.41740239   0.03928741
10192.00   0.40612605   0.03954998
10194.00   0.38995317   0.03926006
10196.00   0.37110075   0.03667131
10198.00   0.38076136   0.03390224
10200.00   0.39087281   0.03275501
10202.00   0.39579144   0.03351783
10204.00   0.41603446   0.03495157
10206.00   0.42142129   0.03895046
10208.00   0.42067382   0.04418093
10210.00   0.42377296   0.04757409
10212.00   0.42256293   0.04841391
10214.00   0.39213732   0.04812592
10216.00   0.36441627   0.04649308
10218.00   0.37759197   0.04157533
10220.00   0.40062761   0.03681433
10222.00   0.40461144   0.03590503
10224.00   0.39048564   0.03841099
10226.00   0.42493391   0.04088435
10228.00   0.42120600   0.04302927
10230.00   0.40874934   0.04423895
10232.00   0.41840911   0.04381259
10234.00   0.43151239   0.04078493
10236.00   0.42667449   0.03830172
10238.00   0.39591050   0.03531473
10240.00   0.36802718   0.03257075
10242.00   0.36973146   0.03112884
10244.00   0.39993057   0.03106301
10246.00   0.40105128   0.03093507
10248.00   0.39978585   0.03124023
10250.00   0.39223400   0.03143601
10252.00   0.37548628   0.03114931
10254.00   0.37139902   0.03115492
10256.00   0.39959893   0.03189311
10258.00   0.40302801   0.03227994
10260.00   0.39734712   0.03253033
10262.00   0.40923563   0.03315475
10264.00   0.39629856   0.03378758
10266.00   0.38439497   0.03456570
10268.00   0.36221993   0.03567112
10270.00   0.36327711   0.03709587
10272.00   0.40759552   0.03851808
10274.00   0.38623324   0.03883897
10276.00   0.39951229   0.03950700
10278.00   0.40409830   0.03921251
10280.00   0.39200297   0.04251689
10282.00   0.38300863   0.05423802
10284.00   0.39939877   0.07281447
10286.00   0.43849492   0.08394074
10288.00   0.44256815   0.08937455
10290.00   0.40013540   0.09135499
10292.00   0.35018370   0.09130454
10294.00   0.39085808   0.08516484
10296.00   0.36578628   0.07222620
10298.00   0.34498739   0.06626471
10300.00   0.36019304   0.06411120
10302.00   0.38939127   0.06042075
10304.00   0.44255412   0.05473271
10306.00   0.42785808   0.05072125
10308.00   0.40349114   0.04943959
10310.00   0.39239621   0.04976654
10312.00   0.36461869   0.04926931
10314.00   0.37188172   0.04854919
10316.00   0.39944449   0.04696892
10318.00   0.40453646   0.04485347
10320.00   0.38594905   0.04312934
10322.00   0.39385191   0.04303512
10324.00   0.39234838   0.04376253
10326.00   0.40082005   0.04454637
10328.00   0.42280367   0.04523723
10330.00   0.43362319   0.04562209
10332.00   0.38137448   0.04519962
10334.00   0.34347811   0.04447877
10336.00   0.35609686   0.04493098
10338.00   0.37530747   0.04591432
10340.00   0.37540197   0.04703144
10342.00   0.40257612   0.04911546
10344.00   0.41256765   0.05447081
10346.00   0.40844187   0.05923880
10348.00   0.41107455   0.06237065
10350.00   0.42201519   0.06389234
10352.00   0.39281762   0.06448520
10354.00   0.33525476   0.06122474
10356.00   0.33407637   0.05750231
10358.00   0.36427829   0.05494757
10360.00   0.37234345   0.05367006
10362.00   0.34817407   0.05193825
10364.00   0.36337087   0.05083731
10366.00   0.38110557   0.05229616
10368.00   0.36526975   0.06113045
10370.00   0.32470787   0.07669871
10372.00   0.39566466   0.09142066
10374.00   0.47563866   0.09745541
10376.00   0.41790771   0.09952388
10378.00   0.32291982   0.09989541
10380.00   0.35531160   0.08988975
10382.00   0.40105048   0.07106796
10384.00   0.36908710   0.06228014
10386.00   0.34220338   0.05883588
10388.00   0.34364545   0.05773766
10390.00   0.35806251   0.05729097
10392.00   0.42380640   0.06217828
10394.00   0.41057220   0.06812201
10396.00   0.37330624   0.07252470
10398.00   0.35779917   0.07491591
10400.00   0.37244582   0.07591512
10402.00   0.33303377   0.07388281
10404.00   0.30578628   0.06897668
10406.00   0.29928440   0.06397612
10408.00   0.30673501   0.06113397
10410.00   0.31488776   0.06119283
10412.00   0.33009487   0.06371611
10414.00   0.37400207   0.07754156
10416.00   0.40070155   0.09463412
10418.00   0.41409028   0.10765422
10420.00   0.46754083   0.11229807
10422.00   0.47043726   0.11529606
10424.00   0.42435122   0.10995965
10426.00   0.41690055   0.09796864
10428.00   0.43880582   0.08380158
10430.00   0.35783696   0.07463709
10432.00   0.30002117   0.06969227
10434.00   0.33185658   0.06729292
10436.00   0.37577406   0.06616165
10438.00   0.37059912   0.06536268
10440.00   0.33861098   0.06441755
10442.00   0.34305286   0.06408539
10444.00   0.32907808   0.06495994
10446.00   0.33101752   0.06856945
10448.00   0.36405084   0.07448351
10450.00   0.37102905   0.07975695
10452.00   0.34719691   0.08203441
10454.00   0.35045627   0.08348247
10456.00   0.35616598   0.08256809
10458.00   0.34089279   0.07845185
10460.00   0.34432349   0.07397722
10462.00   0.35201743   0.07220139
10464.00   0.34740236   0.07811940
10466.00   0.23750973   0.09013662
10468.00   0.22756672   0.10267317
10470.00   0.39326057   0.10892833
10472.00   0.41393575   0.11231378
10474.00   0.37803522   0.10955352
10476.00   0.33704910   0.10469612
10478.00   0.33738887   0.09257171
10480.00   0.31052276   0.08122691
10482.00   0.31910774   0.07844803
10484.00   0.32533780   0.07739481
10486.00   0.32014406   0.07658082
10488.00   0.31480086   0.07635850
10490.00   0.32861206   0.07792231
10492.00   0.31353119   0.07839263
10494.00   0.31062153   0.07834050
10496.00   0.30801904   0.07798187
10498.00   0.27783141   0.07746746
10500.00   0.29992473   0.07864740
10502.00   0.32014456   0.08028027
10504.00   0.28907463   0.08263996
10506.00   0.25110146   0.08642020
10508.00   0.29329136   0.09181546
10510.00   0.32374331   0.09538648
10512.00   0.35160971   0.09778375
10514.00   0.33963886   0.09798897
10516.00   0.19752121   0.09604301
10518.00   0.21012402   0.09362283
10520.00   0.28800479   0.09662149
10522.00   0.31753132   0.10644586
10524.00   0.30773342   0.11165445
10526.00   0.30408391   0.11206544
10528.00   0.24783264   0.11506480
10530.00   0.30884054   0.11199126
10532.00   0.29608440   0.10814227
10534.00   0.33383206   0.10782760
10536.00   0.39825240   0.10389754
10538.00   0.42069301   0.10392698
10540.00   0.47957897   0.10261161
10542.00   0.37025908   0.10230240
10544.00   0.39104268   0.10217556
10546.00   0.43718529   0.10374352
10548.00   0.53243321   0.10686819
10550.00   0.55422467   0.11227080
10552.00   0.48047948   0.10959705
10554.00   0.41193226   0.11274132
10556.00   0.40873072   0.11435682
10558.00   0.38865709   0.11644509
10560.00   0.38669333   0.11267625
10562.00   0.41417956   0.11553917
10564.00   0.43523726   0.11635403
10566.00   0.41765389   0.11818644
10568.00   0.37381038   0.12005170
10570.00   0.32136881   0.12503135
10572.00   0.29347333   0.12802885
10574.00   0.30414930   0.12858547
10576.00   0.33660540   0.13109407
10578.00   0.32820475   0.13043751
10580.00   0.36892718   0.13115890
10582.00   0.26587364   0.13169181
10584.00   0.20960787   0.14405881
10586.00   0.50644755   0.14934283
10588.00   0.41290149   0.14857051
10590.00   0.36729801   0.14532194
10592.00   0.40282530   0.14156631
10594.00   0.41421849   0.14049691
10596.00   0.42423287   0.14542705
10598.00   0.54901797   0.14760436
10600.00   0.51867229   0.14839940
10602.00   0.42889106   0.14702211
10604.00   0.35411134   0.14471231
10606.00   0.33554414   0.14405990
10608.00   0.42541036   0.14510608
10610.00   0.38160709   0.14583272
10612.00   0.28361753   0.14313574
10614.00   0.33617687   0.14692461
10616.00   0.35178265   0.14819930
10618.00   0.55697858   0.15135793
10620.00   0.53191507   0.15054254
10622.00   0.40098345   0.14982331
10624.00   0.40100762   0.15140921
10626.00   0.41771492   0.15387292
10628.00   0.30450812   0.14777678
10630.00   0.31270748   0.14669907
10632.00   0.37600043   0.14872402
10634.00   0.40861520   0.15038347
10636.00   0.37526941   0.14645705
10638.00   0.32970080   0.15202767
10640.00   0.36652693   0.15348577
10642.00   0.43638906   0.15371493
10644.00   0.47511134   0.15637407
10646.00   0.45306578   0.15427996
10648.00   0.48947963   0.15463197
10650.00   0.39840555   0.15270962
10652.00   0.18011987   0.14630076
10654.00   0.22182797   0.14687037
10656.00   0.34960440   0.14932913
10658.00   0.38664737   0.15092652
10660.00   0.39369866   0.14907719
10662.00   0.34587073   0.14485289
10664.00   0.26243898   0.14102356
10666.00   0.26979145   0.14062299
10668.00   0.29475024   0.14489858
10670.00   0.38673982   0.14339839
10672.00   0.45683536   0.14414793
10674.00   0.42856362   0.14373116
10676.00   0.34891915   0.14082743
10678.00   0.37970185   0.14155947
10680.00   0.35681561   0.14236178
10682.00   0.33872509   0.14273584
10684.00   0.39008346   0.14358605
10686.00   0.33119288   0.14620285
10688.00   0.38151488   0.14982395
10690.00   0.48010999   0.14920796
10692.00   0.34972283   0.14708172
10694.00   0.32469633   0.14780395
10696.00   0.27884969   0.14712508
10698.00   0.31450859   0.15119135
10700.00   0.35225692   0.14868730
10702.00   0.45932063   0.15167910
10704.00   0.47789508   0.14761002
10706.00   0.27363107   0.14756174
10708.00   0.24990141   0.14997201
10710.00   0.20941412   0.15310757
10712.00   0.07359989   0.15489729
10714.00   0.21634893   0.15456556
10716.00   0.35753310   0.15793137
10718.00   0.28671393   0.15430747
10720.00   0.16757198   0.14817370
10722.00   0.15140723   0.14568640
10724.00   0.27896908   0.15141904
10726.00   0.27433157   0.16294320
10728.00   0.23739804   0.16858403
10730.00   0.13047387   0.17271671
10732.00   0.44073293   0.17855740
10734.00   0.55113107   0.17142303
10736.00   0.24896365   0.16249149
10738.00   0.13406834   0.14862968
10740.00   0.28174457   0.14415666
10742.00   0.26129535   0.14317128
10744.00   0.33500063   0.14554095
10746.00   0.40124735   0.15053585
10748.00   0.42361316   0.16321447
10750.00   0.32889262   0.17410399
10752.00   0.28565711   0.17913373
10754.00   0.38662624   0.18176742
10756.00   0.48219323   0.17827374
10758.00   0.57498556   0.16788244
10760.00   0.57107675   0.15074193
10762.00   0.27202362   0.13876033
10764.00   0.13468578   0.12841238
10766.00   0.06761345   0.12170944
10768.00   0.29582256   0.12086032
10770.00   0.28903058   0.12525217
10772.00   0.39558280   0.13322592
10774.00   0.19251934   0.12957829
10776.00   0.27880964   0.12790947
10778.00   0.25927803   0.12518622
10780.00   0.30315554   0.12368754
10782.00   0.13879591   0.11555044
10784.00   0.25335222   0.11015710
10786.00   0.21853049   0.10833398
10788.00   0.22357826   0.10554691
10790.00   0.32442653   0.10339546
10792.00   0.16796005   0.10334879
10794.00   0.08630115   0.10290337
10796.00   0.17739260   0.10548103
10798.00   0.18112063   0.09654909
10800.00   0.29459822   0.09676087
10802.00   0.44282156   0.10062834
10804.00   0.17274392   0.09511355
10806.00   0.23016374   0.09510592
10808.00   0.23224182   0.09514284
10810.00   0.17922746   0.09371269
10812.00   0.17554100   0.09200587
10814.00   0.15136616   0.08786561
10816.00   0.19491737   0.08927242
10818.00   0.21038365   0.09010421
10820.00   0.20929672   0.08931879
10822.00   0.24944860   0.08976718
10824.00   0.16149843   0.08956818
10826.00   0.11409440   0.09482875
10828.00   0.11889181   0.11812454
10830.00   0.27555269   0.13918801
10832.00   0.42811948   0.15064572
10834.00   0.09333991   0.15466642
10836.00   0.08239212   0.15361269
10838.00   0.14115869   0.14720966
10840.00   0.11218055   0.13717008
10842.00   0.08518070   0.13228734
10844.00   0.38023633   0.12088829
10846.00   0.25579736   0.11026996
10848.00   0.21415006   0.10286179
10850.00   0.16992359   0.09485263
10852.00   0.19205630   0.08873316
10854.00   0.15930969   0.08383015
10856.00   0.16649212   0.08213416
10858.00   0.10613982   0.08135136
10860.00   0.22845793   0.07963667
10862.00   0.21921907   0.07743757
10864.00   0.27898300   0.07521740
10866.00   0.08984409   0.07035818
10868.00   0.04120041   0.06356890
10870.00   0.07960130   0.06245815
10872.00   0.12399412   0.06574290
10874.00   0.15045108   0.06431681
10876.00   0.17725883   0.06412163
10878.00   0.18028183   0.06399647
10880.00   0.15594999   0.06300043
10882.00   0.16234858   0.06346104
10884.00   0.07929851   0.06095872
10886.00   0.23645167   0.06089784
10888.00   0.30490589   0.06177475
10890.00   0.25959280   0.06090463
10892.00   0.17937930   0.05945097
10894.00   0.19524252   0.06079948
10896.00   0.19661336   0.06203828
10898.00   0.17202842   0.06225519
10900.00   0.15257972   0.06151466
10902.00   0.15289997   0.05955401
10904.00   0.22380328   0.05944608
10906.00   0.23358481   0.05764722
10908.00   0.17287815   0.05394955
10910.00   0.11687527   0.05053914
10912.00   0.18250857   0.05083477
10914.00   0.18700664   0.05048490
10916.00   0.17917176   0.05037209
10918.00   0.17450392   0.05301152
10920.00   0.16506103   0.05955590
10922.00   0.15712641   0.06523617
10924.00   0.03067857   0.06690539
10926.00   0.10152563   0.06842469
10928.00   0.14025086   0.06938358
10930.00   0.21138763   0.06684739
10932.00   0.18642573   0.05999689
10934.00   0.15417220   0.05396296
10936.00   0.14883916   0.05147697
10938.00   0.16389002   0.05087869
10940.00   0.16568319   0.04414253
10942.00   0.16641986   0.04709528
10944.00   0.14914322   0.04721918
10946.00   0.13752522   0.04658213
10948.00   0.13381748   0.04524799
10950.00   0.11977538   0.04578203
10952.00   0.15973558   0.04669949
10954.00   0.16122203   0.04601769
10956.00   0.16849037   0.04477797
10958.00   0.19533174   0.04369578
10960.00   0.19228332   0.04213310
10962.00   0.11790466   0.03872730
10964.00   0.10889826   0.03737776
10966.00   0.13017465   0.03872398
10968.00   0.13005371   0.04150363
10970.00   0.09648943   0.04383127
10972.00   0.13536738   0.04697244
10974.00   0.18950062   0.04845881
10976.00   0.21303682   0.04803484
10978.00   0.19571817   0.04631607
10980.00   0.18194681   0.04430832
10982.00   0.12951493   0.04102614
10984.00   0.13233031   0.03936082
10986.00   0.16278668   0.03874522
10988.00   0.17319854   0.03781187
10990.00   0.16041343   0.03656866
10992.00   0.16089429   0.03579186
10994.00   0.17181879   0.03619600
10996.00   0.18361396   0.03662991
10998.00   0.18377869   0.03611179
11000.00   0.15961252   0.03560014
11002.00   0.15890045   0.03630196
11004.00   0.14555790   0.03655428
11006.00   0.12873714   0.03665255
11008.00   0.13369706   0.03737291
11010.00   0.17499121   0.03830542
11012.00   0.17918156   0.03837117
11014.00   0.16554843   0.03765168
11016.00   0.15017226   0.03674021
11018.00   0.14146693   0.03629519
11020.00   0.12801464   0.03591796
11022.00   0.13263173   0.03693090
11024.00   0.14728631   0.03832946
11026.00   0.15608118   0.03947993
11028.00   0.14739440   0.04032974
11030.00   0.14266397   0.04200171
11032.00   0.13673352   0.04235557
11034.00   0.11680851   0.04118096
11036.00   0.10115167   0.03974053
11038.00   0.12265021   0.04010619
11040.00   0.17271282   0.04156703
11042.00   0.17232233   0.04196281
11044.00   0.18243206   0.04268073
11046.00   0.20287418   0.04350855
11048.00   0.17829533   0.04001559
11050.00   0.14846887   0.04315330
11052.00   0.16588801   0.04430184
11054.00   0.17053980   0.04483994
11056.00   0.14204431   0.04469927
11058.00   0.12118677   0.04546871
11060.00   0.15568610   0.04712084
11062.00   0.15558101   0.04549590
11064.00   0.15057664   0.04633715
11066.00   0.16396640   0.04831654
11068.00   0.18168454   0.05024835
11070.00   0.16896801   0.05220496
11072.00   0.14859279   0.05328420
11074.00   0.13214289   0.05460608
11076.00   0.13030674   0.05936385
11078.00   0.15280549   0.05897684
11080.00   0.15699273   0.06261324
11082.00   0.16238593   0.06547630
11084.00   0.16364656   0.06847845
11086.00   0.16337046   0.07529209
11088.00   0.18720996   0.07719298
11090.00   0.18685184   0.08158320
11092.00   0.17631824   0.08612980
11094.00   0.17615826   0.09042318
11096.00   0.10690730   0.09480574
11098.00   0.11950676   0.10078014
11100.00   0.28714934   0.11265472
