% File created by shivutils (I.Shivvers)
% wl(A)   flm    er(optional)
3446.00   6.40972614   0.35864773
3447.00   6.49647045   0.35957551
3448.00   7.20635128   0.36815017
3449.00   7.10637283   0.37123269
3450.00   7.13450336   0.36855191
3451.00   7.50286436   0.36931431
3452.00   7.14655209   0.36619458
3453.00   7.24809837   0.36525604
3454.00   6.93248653   0.36329785
3455.00   6.56104040   0.35728836
3456.00   6.86309910   0.35332525
3457.00   6.87006855   0.34776857
3458.00   7.06599379   0.34297594
3459.00   6.74268913   0.33915287
3460.00   6.95124340   0.34306502
3461.00   6.99218607   0.34682840
3462.00   6.48531914   0.34522057
3463.00   7.27174520   0.35022995
3464.00   7.16426754   0.35024887
3465.00   6.86453533   0.34532502
3466.00   6.74090052   0.34358275
3467.00   7.10695934   0.35062823
3468.00   6.39839172   0.34504521
3469.00   6.08213806   0.33867106
3470.00   6.24210024   0.33655262
3471.00   6.72191858   0.33502474
3472.00   6.68856621   0.32700753
3473.00   6.27876091   0.31750497
3474.00   6.21245003   0.31309006
3475.00   6.64116049   0.31743702
3476.00   6.83146858   0.32513893
3477.00   6.56109190   0.32780623
3478.00   6.82553625   0.33343926
3479.00   6.87686062   0.33552268
3480.00   6.64114189   0.33133581
3481.00   6.65124941   0.32761669
3482.00   6.51271582   0.32333741
3483.00   6.81928587   0.32586348
3484.00   6.77546215   0.32535392
3485.00   6.64422083   0.32673585
3486.00   6.20656109   0.32366887
3487.00   5.87532282   0.31850159
3488.00   5.92147207   0.30944720
3489.00   6.37493134   0.30723295
3490.00   6.51585340   0.30902371
3491.00   6.67366076   0.31273553
3492.00   7.00354290   0.31924686
3493.00   6.62899065   0.31513143
3494.00   6.59393072   0.31340688
3495.00   6.50935650   0.31129226
3496.00   6.51252174   0.31266826
3497.00   6.55645514   0.31746987
3498.00   6.26986647   0.31774399
3499.00   6.55125427   0.32533279
3500.00   6.43236732   0.32499486
3501.00   5.89801121   0.32467705
3502.00   6.46832991   0.32845968
3503.00   6.52008200   0.32451218
3504.00   5.77270794   0.31360975
3505.00   6.21175623   0.31637502
3506.00   6.28927088   0.31822827
3507.00   5.87199354   0.31190813
3508.00   6.37852144   0.31252024
3509.00   6.41393805   0.31096110
3510.00   6.34190178   0.30669320
3511.00   5.83689690   0.29674050
3512.00   5.83710384   0.29365754
3513.00   5.80835295   0.29553035
3514.00   6.38489389   0.30480736
3515.00   6.31601620   0.30916679
3516.00   5.97990465   0.31002215
3517.00   6.15778112   0.31328976
3518.00   6.18836355   0.31200522
3519.00   6.19045830   0.30732125
3520.00   6.06277466   0.30015785
3521.00   5.70132494   0.29180098
3522.00   5.93981504   0.29108328
3523.00   6.37492657   0.29156575
3524.00   6.29965067   0.28791863
3525.00   5.91749716   0.28679657
3526.00   5.85648394   0.29161006
3527.00   5.92192650   0.29706103
3528.00   5.77626896   0.30051759
3529.00   6.13211632   0.30495587
3530.00   6.34009838   0.30538619
3531.00   6.05964851   0.30363080
3532.00   5.95649052   0.30233917
3533.00   6.33512020   0.30648935
3534.00   6.64228725   0.30999181
3535.00   6.30489016   0.30488962
3536.00   6.06332493   0.30528480
3537.00   5.94739008   0.30491695
3538.00   6.31707096   0.30597174
3539.00   6.55351019   0.30919901
3540.00   6.06484842   0.30540103
3541.00   6.30492306   0.30397847
3542.00   6.12964678   0.30352086
3543.00   6.00482416   0.30384478
3544.00   6.36583042   0.30687892
3545.00   6.72357178   0.30782396
3546.00   6.59774780   0.30641615
3547.00   6.53994560   0.30476233
3548.00   6.66991711   0.30765864
3549.00   6.35664272   0.30469668
3550.00   6.29799414   0.30456281
3551.00   6.56205797   0.30041426
3552.00   6.95796108   0.30027884
3553.00   6.75607204   0.29626134
3554.00   6.53007603   0.29505584
3555.00   6.40542889   0.29664576
3556.00   6.47830582   0.29695150
3557.00   6.68658066   0.29800677
3558.00   6.32008410   0.29365379
3559.00   6.15080214   0.29387388
3560.00   6.22808218   0.29674357
3561.00   6.02605534   0.29610151
3562.00   5.78051615   0.29103836
3563.00   6.36929321   0.28691110
3564.00   6.50015211   0.28163987
3565.00   6.59651184   0.27953148
3566.00   6.99024916   0.27961826
3567.00   6.68337727   0.27585045
3568.00   6.20245218   0.26976866
3569.00   5.97553825   0.26433241
3570.00   6.01841879   0.26592049
3571.00   6.60631323   0.27470678
3572.00   6.56442451   0.27650207
3573.00   6.20447636   0.27519920
3574.00   6.26019669   0.27658385
3575.00   6.00558710   0.27436024
3576.00   5.89436531   0.27154797
3577.00   5.77600050   0.26539412
3578.00   5.95627832   0.26073068
3579.00   6.23075247   0.25848576
3580.00   5.86102247   0.25268519
3581.00   6.04105854   0.25276425
3582.00   6.12047291   0.25443900
3583.00   6.10942554   0.25210002
3584.00   5.98563862   0.24867280
3585.00   5.71411085   0.24520886
3586.00   5.90009594   0.25067854
3587.00   5.81580782   0.25420323
3588.00   6.12465096   0.26139361
3589.00   5.92568016   0.26544961
3590.00   5.65395784   0.26607421
3591.00   6.05051899   0.27171785
3592.00   6.24977779   0.27279225
3593.00   6.61981297   0.27614090
3594.00   6.52692938   0.27692872
3595.00   6.75409651   0.28009489
3596.00   6.48794365   0.27829701
3597.00   6.33882713   0.27850974
3598.00   6.44230843   0.28018674
3599.00   6.29644156   0.27528274
3600.00   6.70259237   0.27430105
3601.00   6.38043213   0.26784950
3602.00   6.12799883   0.26077878
3603.00   6.00074148   0.25727433
3604.00   6.12330532   0.25716388
3605.00   6.09239912   0.25333303
3606.00   6.30048275   0.25222585
3607.00   6.16992188   0.24921761
3608.00   5.83751726   0.24552475
3609.00   6.00300455   0.24785540
3610.00   6.21405458   0.25131834
3611.00   5.95995331   0.25140357
3612.00   5.80952549   0.25256476
3613.00   6.04565620   0.25473720
3614.00   6.04461288   0.25394455
3615.00   5.93480539   0.25072956
3616.00   5.83438921   0.24555054
3617.00   6.03238058   0.24213238
3618.00   6.22352886   0.24009165
3619.00   6.01264334   0.24024792
3620.00   5.80461645   0.24375172
3621.00   5.75466585   0.24667180
3622.00   5.76381826   0.25035885
3623.00   5.93069601   0.25588891
3624.00   6.23937511   0.26018003
3625.00   6.16187668   0.26112589
3626.00   5.95184803   0.26133126
3627.00   6.12617397   0.26054579
3628.00   6.33071661   0.25511026
3629.00   6.01822567   0.24560679
3630.00   6.24999666   0.24170883
3631.00   6.18294621   0.23742825
3632.00   6.13040733   0.23770681
3633.00   5.92138815   0.24020848
3634.00   5.79824781   0.24250813
3635.00   5.99070501   0.24429616
3636.00   6.50561857   0.25215834
3637.00   6.29843712   0.25306398
3638.00   6.19565725   0.25261173
3639.00   6.89731073   0.25870124
3640.00   6.50149488   0.25481614
3641.00   6.27313614   0.24975525
3642.00   6.54139137   0.24932182
3643.00   6.53992701   0.24751168
3644.00   5.97407961   0.23997177
3645.00   6.07647228   0.23908108
3646.00   6.45381737   0.24323054
3647.00   5.84124279   0.24233085
3648.00   6.07074928   0.24946861
3649.00   6.15059662   0.25418591
3650.00   6.31396341   0.25753742
3651.00   6.43088055   0.25826842
3652.00   5.97768354   0.25385892
3653.00   5.91249514   0.25171721
3654.00   6.25849819   0.25337112
3655.00   6.64900160   0.25474206
3656.00   6.58867025   0.25306803
3657.00   6.48183918   0.25195733
3658.00   6.10500526   0.24905804
3659.00   6.13298988   0.25028822
3660.00   5.94230175   0.24873836
3661.00   5.87736845   0.24789375
3662.00   6.15867138   0.25024074
3663.00   6.10584831   0.24822159
3664.00   6.25261736   0.24530844
3665.00   6.32800579   0.24385490
3666.00   6.00025797   0.23991254
3667.00   6.06196260   0.23627816
3668.00   6.36605883   0.23707668
3669.00   6.30583000   0.23794533
3670.00   6.21758032   0.23807266
3671.00   6.33418226   0.24010506
3672.00   6.38955498   0.24084128
3673.00   6.49491978   0.24034446
3674.00   6.34087944   0.23647068
3675.00   6.07127285   0.23161958
3676.00   6.13253546   0.22965808
3677.00   6.27778769   0.22707683
3678.00   6.07271338   0.22332281
3679.00   6.05030251   0.22342245
3680.00   6.42236423   0.22621013
3681.00   6.26607418   0.22729543
3682.00   6.19546556   0.22755323
3683.00   6.24686670   0.22552958
3684.00   6.32845116   0.22306588
3685.00   6.39523315   0.22096570
3686.00   6.45735741   0.22113279
3687.00   5.83218145   0.21674562
3688.00   6.01687241   0.22104955
3689.00   6.10440302   0.22574694
3690.00   6.25028372   0.22800475
3691.00   6.31735229   0.22915734
3692.00   6.12446690   0.22638668
3693.00   6.27813196   0.22517225
3694.00   6.24158049   0.22295813
3695.00   6.36667919   0.22486256
3696.00   6.41596079   0.22668883
3697.00   6.22560215   0.22568312
3698.00   6.24518824   0.22694333
3699.00   6.14878607   0.22791968
3700.00   5.62785864   0.22259034
3701.00   5.89586926   0.22073220
3702.00   6.00991011   0.21683183
3703.00   5.89214802   0.21196078
3704.00   6.00629473   0.20846982
3705.00   6.40561819   0.20814992
3706.00   6.28529310   0.20644136
3707.00   6.21105814   0.20721960
3708.00   6.16527557   0.20933166
3709.00   6.23346853   0.21240458
3710.00   6.20094967   0.21625730
3711.00   6.03076744   0.21929677
3712.00   6.03784132   0.22112274
3713.00   6.07347870   0.22144988
3714.00   6.08309507   0.22039548
3715.00   5.95563030   0.21654259
3716.00   5.81672716   0.21120138
3717.00   5.88021708   0.20589229
3718.00   5.96278524   0.19908059
3719.00   6.15055799   0.19427140
3720.00   6.24209690   0.19325861
3721.00   6.25306082   0.19566660
3722.00   6.34253263   0.20088103
3723.00   5.94228840   0.20282835
3724.00   6.01018810   0.20528486
3725.00   6.12190390   0.20501645
3726.00   6.14767408   0.20485859
3727.00   5.84147739   0.20124713
3728.00   5.94413519   0.20112078
3729.00   5.84281492   0.20142545
3730.00   5.82415104   0.19789979
3731.00   6.16305685   0.19336613
3732.00   5.93897057   0.18668093
3733.00   5.91028881   0.18152314
3734.00   5.84593868   0.17799839
3735.00   5.70289469   0.17841220
3736.00   6.08841038   0.18499357
3737.00   6.07143402   0.19022702
3738.00   5.97022820   0.19524574
3739.00   5.73541451   0.19740480
3740.00   5.81430292   0.19770952
3741.00   5.77163935   0.19550242
3742.00   5.65771484   0.19003823
3743.00   5.70678139   0.18458250
3744.00   5.58731222   0.18013923
3745.00   5.65513706   0.17928025
3746.00   5.95616055   0.17880195
3747.00   5.92511177   0.17748335
3748.00   5.72106791   0.17511506
3749.00   5.77858591   0.17937675
3750.00   5.97268486   0.18591587
3751.00   6.11966610   0.19250064
3752.00   5.98483992   0.19622666
3753.00   5.84687757   0.19804545
3754.00   5.85242987   0.19698410
3755.00   5.76421404   0.19290535
3756.00   5.73266840   0.18754861
3757.00   5.77559757   0.18341854
3758.00   5.90802479   0.18246533
3759.00   5.90618944   0.18344453
3760.00   5.85466719   0.18440238
3761.00   5.91217232   0.18463185
3762.00   5.93040180   0.18488060
3763.00   5.81210327   0.18415642
3764.00   5.72881031   0.18268482
3765.00   5.81496334   0.18264450
3766.00   5.78256750   0.18278831
3767.00   5.62026978   0.18194729
3768.00   5.39966393   0.18079971
3769.00   5.58444214   0.18352631
3770.00   5.84077597   0.18725577
3771.00   5.64002609   0.18783835
3772.00   5.73086119   0.18936627
3773.00   5.79675770   0.19044214
3774.00   5.98825026   0.19171472
3775.00   5.85021639   0.19064181
3776.00   5.93154335   0.18993926
3777.00   6.09568405   0.19104294
3778.00   5.93385792   0.19168176
3779.00   5.96051168   0.19271831
3780.00   5.72230101   0.19139360
3781.00   5.70870590   0.19303370
3782.00   5.71995640   0.19281462
3783.00   6.08579874   0.19276993
3784.00   6.18729687   0.19051655
3785.00   6.01732254   0.18584158
3786.00   5.76088667   0.18036665
3787.00   5.92132139   0.17866097
3788.00   5.83010101   0.17765293
3789.00   5.58893061   0.17615692
3790.00   5.81905842   0.17780060
3791.00   5.82241201   0.17727086
3792.00   6.06224918   0.17792493
3793.00   5.71036053   0.17331178
3794.00   5.50874710   0.16970091
3795.00   5.50414419   0.16683900
3796.00   5.58078861   0.16624418
3797.00   5.82153940   0.16748856
3798.00   5.91202497   0.16864330
3799.00   5.84613228   0.17048138
3800.00   5.69835806   0.17281230
3801.00   5.61946249   0.17536764
3802.00   5.62547016   0.17703229
3803.00   5.64923620   0.17731377
3804.00   5.53390074   0.17506385
3805.00   5.50696850   0.17271680
3806.00   5.46266460   0.17170869
3807.00   5.52077627   0.17229998
3808.00   5.64272785   0.17370525
3809.00   5.68654251   0.17468414
3810.00   5.67033291   0.17398366
3811.00   5.70460844   0.17194611
3812.00   5.76602554   0.16841072
3813.00   5.55555058   0.16261370
3814.00   5.60018206   0.16080108
3815.00   5.78103209   0.16196011
3816.00   5.76707363   0.16163887
3817.00   5.60945559   0.15997706
3818.00   5.35547113   0.15649761
3819.00   5.43844175   0.15584862
3820.00   5.62434721   0.15638985
3821.00   5.38374376   0.15424833
3822.00   5.45817089   0.15409274
3823.00   5.53920317   0.15334485
3824.00   5.32032061   0.14973170
3825.00   5.32496548   0.14694448
3826.00   5.52465868   0.14769962
3827.00   5.55145884   0.14860941
3828.00   5.59079123   0.14967579
3829.00   5.65697861   0.15049687
3830.00   5.55040598   0.14785975
3831.00   5.58698511   0.14668684
3832.00   5.70201302   0.14602572
3833.00   5.76947689   0.14560263
3834.00   5.55063772   0.14559807
3835.00   5.32960415   0.14467900
3836.00   5.46356535   0.14553677
3837.00   5.43458223   0.14316894
3838.00   5.60049629   0.14382502
3839.00   5.65529966   0.14559783
3840.00   5.51357365   0.14784256
3841.00   5.43696070   0.15110400
3842.00   5.44367504   0.15385936
3843.00   5.24375534   0.15438130
3844.00   5.09296799   0.15356295
3845.00   5.39747095   0.15477100
3846.00   5.58698606   0.15438037
3847.00   5.41820240   0.15155119
3848.00   5.33648014   0.15084279
3849.00   5.39212275   0.15091716
3850.00   5.29015732   0.15002865
3851.00   5.26370287   0.14990401
3852.00   5.19191074   0.14972320
3853.00   5.21068096   0.14845484
3854.00   5.32503414   0.14729600
3855.00   5.26312828   0.14559487
3856.00   5.22412109   0.14314105
3857.00   5.31203413   0.14123148
3858.00   5.41399670   0.14054884
3859.00   5.20189857   0.13981287
3860.00   5.00044346   0.14104708
3861.00   5.28583145   0.14643991
3862.00   5.32594395   0.14947207
3863.00   5.23023081   0.15016760
3864.00   5.30735064   0.15058078
3865.00   5.34428358   0.14900079
3866.00   5.55098009   0.14837864
3867.00   5.63098001   0.14785039
3868.00   5.38551378   0.14448403
3869.00   5.34358978   0.14111167
3870.00   5.40889406   0.13990296
3871.00   5.53496790   0.14127968
3872.00   5.50310516   0.14411081
3873.00   5.43012857   0.14698391
3874.00   5.47578859   0.14874394
3875.00   5.57759762   0.14867583
3876.00   5.35751963   0.14514671
3877.00   5.25124407   0.14225350
3878.00   5.23233795   0.14052005
3879.00   5.37989759   0.14130712
3880.00   5.38748646   0.14120805
3881.00   5.32676220   0.14109963
3882.00   5.44702196   0.14270554
3883.00   5.57230902   0.14251220
3884.00   5.62103891   0.14289245
3885.00   5.34326458   0.14100626
3886.00   5.28914785   0.13837570
3887.00   5.41460419   0.13873167
3888.00   5.36875105   0.14042740
3889.00   5.23473835   0.14192563
3890.00   5.17447329   0.14393453
3891.00   5.11979580   0.14573130
3892.00   5.15756464   0.14656034
3893.00   5.13165379   0.14616688
3894.00   5.26130438   0.14730766
3895.00   5.31189299   0.14764547
3896.00   5.17802095   0.14660312
3897.00   5.14502811   0.14608435
3898.00   5.34568548   0.14684875
3899.00   5.33684826   0.14643252
3900.00   5.19769621   0.14561157
3901.00   5.21959257   0.14519934
3902.00   5.15665913   0.14300735
3903.00   5.10952950   0.14137968
3904.00   5.32134438   0.14255446
3905.00   5.31572151   0.14350662
3906.00   5.15402555   0.14476061
3907.00   5.30043125   0.14749900
3908.00   5.33558702   0.14921017
3909.00   5.19307995   0.15031280
3910.00   5.07545567   0.15064190
3911.00   5.02737856   0.15032743
3912.00   5.15651083   0.15068121
3913.00   5.11237907   0.14908201
3914.00   5.01707792   0.14634864
3915.00   5.04153347   0.14418015
3916.00   5.23649359   0.14276685
3917.00   5.14508820   0.14028621
3918.00   4.93957233   0.13746691
3919.00   4.96832752   0.13579454
3920.00   5.13029099   0.13518018
3921.00   5.01413488   0.13449417
3922.00   4.93490839   0.13385417
3923.00   4.96949053   0.13448760
3924.00   4.94808435   0.13300806
3925.00   4.75901747   0.12934713
3926.00   4.84542131   0.12662226
3927.00   4.96532202   0.12368973
3928.00   4.84715796   0.12010759
3929.00   4.71045876   0.11642817
3930.00   4.82525682   0.11427486
3931.00   4.82246447   0.11154039
3932.00   4.62488365   0.10943149
3933.00   4.35608292   0.10756934
3934.00   4.30895042   0.10840491
3935.00   4.62491512   0.11257461
3936.00   4.80080843   0.11621613
3937.00   4.76210022   0.11940207
3938.00   4.53873825   0.12135827
3939.00   4.79691553   0.12503687
3940.00   4.81569958   0.12652668
3941.00   4.69364500   0.12593505
3942.00   4.70347929   0.12610716
3943.00   4.84723854   0.12840067
3944.00   4.81703568   0.13015418
3945.00   4.89832163   0.13162522
3946.00   4.76831245   0.13195410
3947.00   4.69344425   0.13253461
3948.00   4.95446634   0.13433264
3949.00   4.83203602   0.13390882
3950.00   4.59416008   0.13259445
3951.00   4.71688938   0.13301603
3952.00   4.74482727   0.13279529
3953.00   4.63448143   0.13159893
3954.00   4.71573162   0.13183595
3955.00   4.93690205   0.13318489
3956.00   4.92891884   0.13312888
3957.00   4.73159981   0.13158824
3958.00   4.82048750   0.13072023
3959.00   4.91225195   0.12936005
3960.00   4.92915249   0.12679930
3961.00   4.98155689   0.12419163
3962.00   4.84674215   0.12098753
3963.00   4.87837362   0.11880670
3964.00   4.91451120   0.11638500
3965.00   4.90868139   0.11326867
3966.00   4.76801252   0.10911109
3967.00   4.57919693   0.10630355
3968.00   4.58733225   0.10611060
3969.00   4.72720861   0.10845500
3970.00   4.98215389   0.11372180
3971.00   5.07195377   0.11796942
3972.00   5.02515554   0.12019024
3973.00   4.80421925   0.12178600
3974.00   4.93376875   0.12477167
3975.00   5.00589800   0.12687925
3976.00   5.13223124   0.12996241
3977.00   5.04355621   0.13156851
3978.00   5.00524282   0.13283750
3979.00   5.02284765   0.13329451
3980.00   5.01915455   0.13299663
3981.00   5.13515282   0.13299330
3982.00   5.15589333   0.13279802
3983.00   5.05745268   0.13210703
3984.00   5.18423080   0.13261460
3985.00   5.21101189   0.13355473
3986.00   5.14560747   0.13414028
3987.00   5.19688559   0.13494711
3988.00   5.30787039   0.13665579
3989.00   5.37057924   0.13700736
3990.00   5.28103828   0.13684335
3991.00   5.10784864   0.13660665
3992.00   5.09574604   0.13614370
3993.00   5.11792612   0.13583733
3994.00   5.16686249   0.13538709
3995.00   5.15623713   0.13463536
3996.00   5.22318029   0.13493134
3997.00   5.33572960   0.13539872
3998.00   5.23001432   0.13506071
3999.00   5.11544037   0.13500994
4000.00   5.15675831   0.13571751
4001.00   5.11045504   0.13561158
4002.00   5.08999968   0.13436392
4003.00   5.28081512   0.13342513
4004.00   5.33275509   0.13214384
4005.00   5.27374268   0.13135330
4006.00   5.23737860   0.13175195
4007.00   5.44199610   0.13431273
4008.00   5.55723333   0.13605899
4009.00   5.31075239   0.13504092
4010.00   5.25430775   0.13497241
4011.00   5.36203337   0.13532653
4012.00   5.35372448   0.13505751
4013.00   5.39297342   0.13504530
4014.00   5.12452793   0.13362461
4015.00   5.19128323   0.13388368
4016.00   5.31876659   0.13461414
4017.00   5.45659590   0.13556705
4018.00   5.35335588   0.13572206
4019.00   5.29905033   0.13648739
4020.00   5.36032200   0.13720822
4021.00   5.50238848   0.13752507
4022.00   5.47688866   0.13677457
4023.00   5.57295847   0.13724090
4024.00   5.40770054   0.13614509
4025.00   5.37566662   0.13522507
4026.00   5.63341522   0.13655616
4027.00   5.34235191   0.13500115
4028.00   5.14847612   0.13332014
4029.00   5.34513235   0.13240863
4030.00   5.43479490   0.13061321
4031.00   5.39257002   0.12917885
4032.00   5.39867592   0.12907457
4033.00   5.41051435   0.12923415
4034.00   5.40628672   0.13049930
4035.00   5.53672647   0.13304324
4036.00   5.47228956   0.13387349
4037.00   5.40947533   0.13368815
4038.00   5.45778799   0.13346738
4039.00   5.58149385   0.13335136
4040.00   5.46083117   0.13268906
4041.00   5.26974344   0.13103695
4042.00   5.12991428   0.12931891
4043.00   5.22615528   0.13163252
4044.00   5.50340223   0.13634115
4045.00   5.35764217   0.13829890
4046.00   5.24716711   0.13944997
4047.00   5.46065140   0.13984078
4048.00   5.45504808   0.13657817
4049.00   5.38648748   0.13243543
4050.00   5.35286713   0.13021344
4051.00   5.24915361   0.12909175
4052.00   5.15606260   0.12788050
4053.00   5.08035660   0.12655361
4054.00   5.09431219   0.12571530
4055.00   5.35941601   0.12599140
4056.00   5.49506664   0.12643908
4057.00   5.55627966   0.12676975
4058.00   5.49041986   0.12723696
4059.00   5.35238838   0.12718959
4060.00   5.49322844   0.12681869
4061.00   5.43152523   0.12456031
4062.00   5.33861589   0.12287333
4063.00   5.35181999   0.12241909
4064.00   5.42981482   0.12338176
4065.00   5.55425596   0.12536436
4066.00   5.41941261   0.12630001
4067.00   5.34069490   0.12662546
4068.00   5.39618635   0.12674622
4069.00   5.25046110   0.12516582
4070.00   5.36039639   0.12482115
4071.00   5.25461102   0.12379497
4072.00   5.36179495   0.12418865
4073.00   5.43844366   0.12494050
4074.00   5.45409346   0.12508638
4075.00   5.26978064   0.12382808
4076.00   5.36409950   0.12375479
4077.00   5.42864943   0.12382381
4078.00   5.44013786   0.12483633
4079.00   5.32583523   0.12545957
4080.00   5.31720972   0.12554620
4081.00   5.22806215   0.12479794
4082.00   5.22291279   0.12387881
4083.00   5.25186968   0.12297452
4084.00   5.20620203   0.12245333
4085.00   5.18453503   0.12332317
4086.00   5.24860859   0.12434429
4087.00   5.25723696   0.12472533
4088.00   5.16472578   0.12433682
4089.00   5.02900505   0.12320413
4090.00   5.07312155   0.12279838
4091.00   5.11553001   0.12244930
4092.00   5.15201855   0.12204950
4093.00   5.35010338   0.12206911
4094.00   5.35526037   0.12113452
4095.00   5.17743874   0.11967377
4096.00   5.13203239   0.11874162
4097.00   5.19798326   0.11785989
4098.00   5.18423462   0.11616716
4099.00   5.06600523   0.11416276
4100.00   5.03102207   0.11277535
4101.00   4.98018932   0.11173306
4102.00   5.10237980   0.11282773
4103.00   5.30776834   0.11541771
4104.00   5.19534302   0.11676013
4105.00   5.05648375   0.11763869
4106.00   5.03071451   0.11811480
4107.00   5.09489965   0.11843341
4108.00   5.02056217   0.11816675
4109.00   5.04189777   0.11816126
4110.00   5.02765369   0.11870378
4111.00   4.84399462   0.11797077
4112.00   4.93579197   0.11895476
4113.00   5.04401684   0.12038576
4114.00   4.99145651   0.12051816
4115.00   5.01441622   0.12068110
4116.00   4.87187958   0.11893932
4117.00   4.89571953   0.11847946
4118.00   5.01750422   0.11854926
4119.00   4.73279381   0.11712152
4120.00   4.73150969   0.11695167
4121.00   4.68101168   0.11678564
4122.00   4.91625309   0.11780665
4123.00   5.00526381   0.11786932
4124.00   4.88102579   0.11660562
4125.00   4.80169344   0.11572131
4126.00   5.02534866   0.11595818
4127.00   4.82460976   0.11519391
4128.00   4.81086016   0.11437644
4129.00   4.87091017   0.11365529
4130.00   4.97115135   0.11345239
4131.00   4.95500374   0.11260161
4132.00   4.81824780   0.11179510
4133.00   4.82780695   0.11220770
4134.00   4.67775726   0.11228294
4135.00   4.78388929   0.11366741
4136.00   4.99082041   0.11568311
4137.00   4.88328028   0.11594936
4138.00   4.87096214   0.11628098
4139.00   4.82234859   0.11629419
4140.00   4.68937492   0.11470351
4141.00   4.77813578   0.11304367
4142.00   4.84125566   0.11181821
4143.00   4.75133705   0.11091936
4144.00   4.66630459   0.11091246
4145.00   4.80635595   0.11262514
4146.00   5.00143194   0.11439037
4147.00   4.85630322   0.11364103
4148.00   4.76513910   0.11270107
4149.00   4.79352999   0.11285605
4150.00   4.88384581   0.11315408
4151.00   4.95445728   0.11304779
4152.00   4.86037302   0.11251181
4153.00   4.85521841   0.11180821
4154.00   4.70126438   0.11053304
4155.00   4.68262196   0.11044770
4156.00   4.59825802   0.11047740
4157.00   4.60464859   0.11102460
4158.00   4.93386078   0.11281147
4159.00   4.93161726   0.11315852
4160.00   4.81203127   0.11353044
4161.00   4.82536077   0.11406700
4162.00   4.88906193   0.11457213
4163.00   4.98412752   0.11491133
4164.00   5.00955343   0.11475496
4165.00   5.01475286   0.11401586
4166.00   5.07325935   0.11333963
4167.00   4.76267672   0.11171804
4168.00   4.76134348   0.11097255
4169.00   4.71637917   0.11002231
4170.00   4.78662872   0.10907505
4171.00   4.84319496   0.10851616
4172.00   4.83876085   0.10756882
4173.00   4.78359318   0.10751572
4174.00   4.81649113   0.10761751
4175.00   4.95377159   0.10816891
4176.00   4.90229464   0.10846649
4177.00   5.08009291   0.10942763
4178.00   4.98119831   0.10886261
4179.00   4.99926949   0.10873131
4180.00   5.00807953   0.10868529
4181.00   4.92286348   0.10779790
4182.00   4.95872450   0.10809542
4183.00   4.96833944   0.10840411
4184.00   4.83007526   0.10737226
4185.00   4.86091042   0.10713811
4186.00   4.91907406   0.10718559
4187.00   4.88051939   0.10694110
4188.00   5.01996803   0.10774134
4189.00   4.94981909   0.10806412
4190.00   4.99874640   0.10902895
4191.00   5.23669815   0.11026102
4192.00   5.11766291   0.10950737
4193.00   5.09039164   0.10885442
4194.00   4.98938799   0.10776668
4195.00   5.09770536   0.10718921
4196.00   5.06592131   0.10590786
4197.00   5.01060772   0.10523042
4198.00   5.03413439   0.10520346
4199.00   4.94627523   0.10447181
4200.00   5.03510427   0.10518315
4201.00   5.16171408   0.10604671
4202.00   5.10833883   0.10615967
4203.00   5.08688641   0.10684300
4204.00   5.04964256   0.10763632
4205.00   4.98752785   0.10811011
4206.00   5.04610682   0.10844661
4207.00   4.96897459   0.10798085
4208.00   5.07084703   0.10859697
4209.00   5.12568712   0.10898557
4210.00   5.08413219   0.10838700
4211.00   5.05335331   0.10840573
4212.00   4.95548344   0.10812601
4213.00   5.05432653   0.10768300
4214.00   4.95577097   0.10639769
4215.00   4.97343683   0.10567186
4216.00   5.00815678   0.10571808
4217.00   5.01452160   0.10636203
4218.00   4.96368027   0.10658246
4219.00   5.13213730   0.10721451
4220.00   5.05889320   0.10706773
4221.00   4.95118570   0.10622366
4222.00   5.01469374   0.10485341
4223.00   4.96863174   0.10222700
4224.00   4.87209177   0.09969840
4225.00   4.89936972   0.09904401
4226.00   4.98570871   0.09957034
4227.00   4.90808630   0.10031731
4228.00   4.84943342   0.10249237
4229.00   4.87614155   0.10473391
4230.00   4.88727665   0.10533532
4231.00   4.81870556   0.10475421
4232.00   4.85176706   0.10413758
4233.00   4.82836390   0.10284185
4234.00   4.67884445   0.10165241
4235.00   4.73668003   0.10176083
4236.00   4.85673904   0.10174561
4237.00   4.87585926   0.10161642
4238.00   4.86790609   0.10200401
4239.00   4.80991364   0.10215247
4240.00   4.72933197   0.10176411
4241.00   4.68311119   0.10185105
4242.00   4.75844431   0.10285919
4243.00   4.68110418   0.10284930
4244.00   4.57898331   0.10271949
4245.00   4.61909866   0.10286691
4246.00   4.50340605   0.10164624
4247.00   4.58998632   0.10077251
4248.00   4.66885233   0.10007086
4249.00   4.56887722   0.09931148
4250.00   4.61135435   0.10009865
4251.00   4.80805779   0.10078997
4252.00   4.78033876   0.10093339
4253.00   4.53462648   0.10035180
4254.00   4.55208969   0.10041025
4255.00   4.62137699   0.10084141
4256.00   4.49410725   0.10012403
4257.00   4.49568939   0.09969885
4258.00   4.55529737   0.09884495
4259.00   4.46745443   0.09759309
4260.00   4.43462515   0.09747129
4261.00   4.53385592   0.09891833
4262.00   4.66726732   0.10063899
4263.00   4.60580826   0.10137545
4264.00   4.52643251   0.10149068
4265.00   4.49364853   0.10136509
4266.00   4.46741724   0.10065298
4267.00   4.36010075   0.09885518
4268.00   4.38213682   0.09706232
4269.00   4.42164803   0.09566012
4270.00   4.45717049   0.09484018
4271.00   4.35972977   0.09336389
4272.00   4.36928129   0.09323925
4273.00   4.47319794   0.09450449
4274.00   4.55405855   0.09582336
4275.00   4.33055496   0.09629787
4276.00   4.35255146   0.09736520
4277.00   4.47335577   0.09777493
4278.00   4.46793175   0.09731640
4279.00   4.39912462   0.09663112
4280.00   4.32987785   0.09608666
4281.00   4.38049459   0.09633445
4282.00   4.47336531   0.09665387
4283.00   4.47351646   0.09631168
4284.00   4.40259886   0.09570725
4285.00   4.37377119   0.09515732
4286.00   4.47697735   0.09490094
4287.00   4.48111868   0.09427877
4288.00   4.36314344   0.09327407
4289.00   4.45130634   0.09355620
4290.00   4.45418167   0.09404772
4291.00   4.45465565   0.09467686
4292.00   4.43812513   0.09519763
4293.00   4.42744732   0.09489605
4294.00   4.41956425   0.09454044
4295.00   4.39229250   0.09390411
4296.00   4.54838705   0.09329456
4297.00   4.51499414   0.09153007
4298.00   4.63563585   0.09053171
4299.00   4.52087975   0.08893891
4300.00   4.48611879   0.08810685
4301.00   4.42131710   0.08740737
4302.00   4.45049191   0.08780716
4303.00   4.31596184   0.08757721
4304.00   4.28124142   0.08738619
4305.00   4.38103676   0.08737164
4306.00   4.44286156   0.08688384
4307.00   4.38141060   0.08616458
4308.00   4.30179024   0.08531643
4309.00   4.47475147   0.08666554
4310.00   4.25521088   0.08693673
4311.00   4.44359779   0.08928975
4312.00   4.45987034   0.09151783
4313.00   4.31138659   0.09305684
4314.00   4.24908018   0.09506941
4315.00   4.30324554   0.09654234
4316.00   4.32706738   0.09749463
4317.00   4.40259933   0.09814547
4318.00   4.22457075   0.09802337
4319.00   4.19593430   0.09788475
4320.00   4.43486834   0.09740940
4321.00   4.54907322   0.09601089
4322.00   4.38031244   0.09330361
4323.00   4.44322491   0.09151043
4324.00   4.45929861   0.09099852
4325.00   4.37692451   0.09118274
4326.00   4.28058720   0.09217858
4327.00   4.23491287   0.09358967
4328.00   4.27607489   0.09483531
4329.00   4.33662605   0.09582230
4330.00   4.46936941   0.09633708
4331.00   4.46868849   0.09594600
4332.00   4.35953379   0.09547847
4333.00   4.33144617   0.09537036
4334.00   4.30025911   0.09471132
4335.00   4.24622440   0.09334636
4336.00   4.19493246   0.09159462
4337.00   4.30938053   0.08996519
4338.00   4.35085726   0.08847089
4339.00   4.27460861   0.08754257
4340.00   4.25160217   0.08793855
4341.00   4.26219511   0.08907527
4342.00   4.11445236   0.09031277
4343.00   4.26696587   0.09216304
4344.00   4.26132965   0.09317278
4345.00   4.11344290   0.09318459
4346.00   4.13655043   0.09365374
4347.00   4.05805922   0.09361411
4348.00   4.08354092   0.09307075
4349.00   4.02806854   0.09169800
4350.00   4.06115866   0.09090325
4351.00   4.13369131   0.09059552
4352.00   4.08460188   0.09042446
4353.00   4.14375401   0.09183998
4354.00   4.11526823   0.09513210
4355.00   4.20428324   0.10260731
4356.00   4.35250521   0.10925239
4357.00   4.32598257   0.11270500
4358.00   4.15258789   0.11309011
4359.00   4.08323526   0.10895126
4360.00   3.94723415   0.10288721
4361.00   4.10238028   0.09891542
4362.00   4.22390938   0.09681403
4363.00   4.15089464   0.09550966
4364.00   4.04433537   0.09503437
4365.00   4.01906204   0.09465417
4366.00   4.13325739   0.09440469
4367.00   4.09209585   0.09367912
4368.00   3.97324824   0.09293450
4369.00   3.93618536   0.09262065
4370.00   3.92824793   0.09265164
4371.00   3.89296484   0.09253693
4372.00   3.90140128   0.09212786
4373.00   4.04410219   0.09202804
4374.00   4.01265144   0.09172695
4375.00   3.83121490   0.09122998
4376.00   3.73096943   0.09120505
4377.00   3.73798943   0.09170573
4378.00   3.82911873   0.09220260
4379.00   3.93766141   0.09194065
4380.00   3.96983767   0.09041204
4381.00   3.95744610   0.08819413
4382.00   3.94918919   0.08653537
4383.00   3.92841268   0.08569730
4384.00   4.00364208   0.08598301
4385.00   3.97751403   0.08711149
4386.00   3.91061282   0.08800051
4387.00   3.80915594   0.08775212
4388.00   3.92182541   0.08800147
4389.00   3.91039157   0.08819865
4390.00   3.79221177   0.08784919
4391.00   3.80282640   0.08782530
4392.00   3.77279449   0.08785162
4393.00   3.93331695   0.08849806
4394.00   3.86469698   0.08840039
4395.00   3.85078621   0.08893309
4396.00   3.93521595   0.08971287
4397.00   3.91865635   0.08970540
4398.00   3.91978049   0.08955034
4399.00   3.95809174   0.08947187
4400.00   3.95109534   0.08958302
4401.00   3.98314261   0.08877876
4402.00   3.87150407   0.08779775
4403.00   3.92898726   0.08784524
4404.00   3.96801567   0.08747000
4405.00   3.94082856   0.08738022
4406.00   3.89064050   0.08822224
4407.00   3.86476731   0.08890866
4408.00   3.88944459   0.08949120
4409.00   3.85165453   0.09031700
4410.00   3.78127360   0.09099641
4411.00   3.71507931   0.09089258
4412.00   3.74698830   0.09053773
4413.00   3.75873637   0.08999544
4414.00   3.74386168   0.08921695
4415.00   3.77843046   0.08922715
4416.00   3.77370024   0.08962272
4417.00   3.82247806   0.09041343
4418.00   3.92661047   0.09150839
4419.00   3.91683006   0.09153338
4420.00   3.85863638   0.09092896
4421.00   3.83556962   0.09038360
4422.00   3.86975431   0.08987572
4423.00   3.94209456   0.08993722
4424.00   3.90884924   0.09012415
4425.00   3.83593822   0.09005268
4426.00   3.87434435   0.09016445
4427.00   3.94651580   0.09022158
4428.00   3.89714146   0.08994260
4429.00   3.78200173   0.08966969
4430.00   3.82090449   0.08962972
4431.00   3.92627692   0.08938392
4432.00   3.90593719   0.08873465
4433.00   3.81999588   0.08804722
4434.00   3.82706976   0.08781165
4435.00   3.81072259   0.08808719
4436.00   3.83685851   0.08875149
4437.00   3.79859328   0.08932035
4438.00   3.84641290   0.08968141
4439.00   3.87758923   0.08943821
4440.00   3.71273565   0.08837644
4441.00   3.55491924   0.08705106
4442.00   3.75559497   0.08739723
4443.00   3.88597560   0.08793911
4444.00   3.74565578   0.08740312
4445.00   3.74148417   0.08789811
4446.00   3.73309875   0.08781181
4447.00   4.05442142   0.08852704
4448.00   3.74838066   0.08762406
4449.00   3.84478331   0.08806688
4450.00   3.67341185   0.08734653
4451.00   3.75428319   0.08707799
4452.00   3.81667757   0.08709305
4453.00   3.88872385   0.08698246
4454.00   3.87170625   0.08621296
4455.00   3.74416089   0.08535982
4456.00   3.81705594   0.08582081
4457.00   3.73769045   0.08562616
4458.00   3.91593385   0.08591557
4459.00   3.83199787   0.08606345
4460.00   3.81174326   0.08643892
4461.00   3.88199830   0.08687522
4462.00   3.93224978   0.08758216
4463.00   3.81529140   0.08785012
4464.00   3.74307799   0.08774851
4465.00   3.81138921   0.08798474
4466.00   3.84326077   0.08786837
4467.00   3.81478715   0.08753967
4468.00   3.85584188   0.08760004
4469.00   3.97008514   0.08786692
4470.00   3.87648392   0.08786661
4471.00   3.72911906   0.08804498
4472.00   3.81307411   0.08832374
4473.00   3.88172054   0.08843335
4474.00   3.83297324   0.08845037
4475.00   3.80859041   0.08804739
4476.00   3.85364270   0.08770977
4477.00   3.89125419   0.08731060
4478.00   3.90293717   0.08647934
4479.00   3.96744704   0.08572811
4480.00   3.87979054   0.08497724
4481.00   3.80378652   0.08477572
4482.00   3.91745996   0.08567298
4483.00   3.95325470   0.08672562
4484.00   3.85146141   0.08727348
4485.00   3.87130642   0.08763296
4486.00   3.92586613   0.08781676
4487.00   3.93434143   0.08756133
4488.00   4.01570272   0.08740185
4489.00   3.98968720   0.08713318
4490.00   4.07302332   0.08769126
4491.00   4.10027170   0.08796901
4492.00   4.03996515   0.08779062
4493.00   4.01688528   0.08786623
4494.00   3.83738256   0.08722988
4495.00   3.90329909   0.08741903
4496.00   4.01557446   0.08814700
4497.00   3.98129129   0.08860804
4498.00   4.06386280   0.08895103
4499.00   4.04944611   0.08856293
4500.00   3.93294454   0.08803749
4501.00   3.99402165   0.08833808
4502.00   3.96642900   0.08819582
4503.00   3.88268781   0.08807454
4504.00   3.95406008   0.08862425
4505.00   4.03503275   0.08882673
4506.00   3.95877647   0.08844473
4507.00   3.95403767   0.08840778
4508.00   4.11006594   0.08868186
4509.00   4.05181837   0.08845111
4510.00   3.95967770   0.08805580
4511.00   3.97061515   0.08773500
4512.00   3.87110043   0.08724718
4513.00   3.93501425   0.08729985
4514.00   4.02031660   0.08731548
4515.00   4.02150726   0.08703273
4516.00   3.95943928   0.08672570
4517.00   3.89691257   0.08645461
4518.00   3.90986443   0.08631720
4519.00   3.97983146   0.08674673
4520.00   4.07310200   0.08708596
4521.00   4.11493206   0.08677088
4522.00   4.06405497   0.08636399
4523.00   3.92418551   0.08565033
4524.00   3.92792511   0.08509564
4525.00   4.08950329   0.08475214
4526.00   4.08836031   0.08409344
4527.00   4.03758907   0.08388194
4528.00   3.98527980   0.08368386
4529.00   3.93412638   0.08367974
4530.00   3.93603444   0.08376579
4531.00   4.04340792   0.08412150
4532.00   4.13600922   0.08437790
4533.00   4.08796692   0.08404909
4534.00   3.91232157   0.08364176
4535.00   3.96815729   0.08442772
4536.00   3.99230814   0.08499226
4537.00   3.95943379   0.08527952
4538.00   3.90194535   0.08540752
4539.00   3.86692786   0.08549034
4540.00   3.74907875   0.08508320
4541.00   3.67654705   0.08450697
4542.00   3.82088208   0.08482500
4543.00   3.84977078   0.08480828
4544.00   3.86019635   0.08457612
4545.00   3.78246808   0.08401921
4546.00   3.67768931   0.08306007
4547.00   3.82076478   0.08309817
4548.00   3.82908702   0.08303282
4549.00   3.74403358   0.08246137
4550.00   3.78341126   0.08332754
4551.00   3.88072324   0.08436292
4552.00   3.93056035   0.08357844
4553.00   3.76061893   0.08284117
4554.00   3.67721176   0.08280928
4555.00   3.75827956   0.08314313
4556.00   3.76462293   0.08330285
4557.00   3.68710756   0.08341014
4558.00   3.83618331   0.08423464
4559.00   3.86855602   0.08427435
4560.00   3.76877356   0.08383293
4561.00   3.71523404   0.08373953
4562.00   3.65757823   0.08316166
4563.00   3.55851007   0.08239364
4564.00   3.65759683   0.08258989
4565.00   3.71779752   0.08278650
4566.00   3.64124155   0.08277851
4567.00   3.63012242   0.08308113
4568.00   3.63722229   0.08308149
4569.00   3.62716937   0.08261514
4570.00   3.57598567   0.08220188
4571.00   3.59972358   0.08223742
4572.00   3.66249657   0.08216095
4573.00   3.62224603   0.08187146
4574.00   3.59843874   0.08186103
4575.00   3.65942335   0.08202063
4576.00   3.65438676   0.08206640
4577.00   3.57673407   0.08151031
4578.00   3.54338932   0.08042984
4579.00   3.58652830   0.08016521
4580.00   3.53340840   0.07984687
4581.00   3.55529237   0.07952368
4582.00   3.69377112   0.07996593
4583.00   3.78692794   0.08033716
4584.00   3.71440887   0.08015469
4585.00   3.74451089   0.08047435
4586.00   3.70413923   0.08063988
4587.00   3.63346505   0.08059505
4588.00   3.72913814   0.08125423
4589.00   3.71121192   0.08140760
4590.00   3.65095878   0.08093676
4591.00   3.68676472   0.08073921
4592.00   3.67342353   0.08032323
4593.00   3.65224767   0.08028906
4594.00   3.67507100   0.08042017
4595.00   3.65531111   0.08008249
4596.00   3.69093823   0.08023056
4597.00   3.73655725   0.08014111
4598.00   3.67656040   0.07979597
4599.00   3.69561934   0.07982014
4600.00   3.75459146   0.07979552
4601.00   3.60254717   0.07914744
4602.00   3.62410402   0.07919207
4603.00   3.68682957   0.07953437
4604.00   3.66406417   0.07933885
4605.00   3.77622008   0.07989534
4606.00   3.82544017   0.08043881
4607.00   3.73209929   0.08047526
4608.00   3.71868777   0.08050323
4609.00   3.73993111   0.08060575
4610.00   3.77851987   0.08068383
4611.00   3.78605223   0.08049621
4612.00   3.77665281   0.08034336
4613.00   3.79160953   0.08039425
4614.00   3.78307080   0.08039565
4615.00   3.80471563   0.08040487
4616.00   3.87956095   0.08051339
4617.00   3.89829850   0.08060395
4618.00   3.79287386   0.08035101
4619.00   3.73262429   0.08008847
4620.00   3.79273319   0.08038237
4621.00   3.84850049   0.08072668
4622.00   3.90516877   0.08075288
4623.00   3.80230856   0.08034637
4624.00   3.72304273   0.08005013
4625.00   3.80858254   0.08012636
4626.00   3.80486417   0.07968193
4627.00   3.80781507   0.07941232
4628.00   3.81217074   0.07951938
4629.00   3.72852159   0.07901194
4630.00   3.73256660   0.07872579
4631.00   3.74846601   0.07882746
4632.00   3.75226045   0.07890906
4633.00   3.74066997   0.07875158
4634.00   3.62305617   0.07801921
4635.00   3.62268949   0.07803506
4636.00   3.79991341   0.07871315
4637.00   3.83420300   0.07878804
4638.00   3.73575830   0.07855492
4639.00   3.73896265   0.07868944
4640.00   3.75305343   0.07906008
4641.00   3.75242329   0.07900908
4642.00   3.77620721   0.07888079
4643.00   3.72354960   0.07852761
4644.00   3.70296645   0.07801763
4645.00   3.74217319   0.07786286
4646.00   3.72775984   0.07747588
4647.00   3.95058298   0.07824584
4648.00   3.94095302   0.07862521
4649.00   3.84470344   0.07890796
4650.00   3.76791024   0.07889090
4651.00   3.76591802   0.07899465
4652.00   3.83589458   0.07943912
4653.00   3.78749371   0.07910436
4654.00   3.79676485   0.07891323
4655.00   3.84646487   0.07930959
4656.00   3.74622035   0.07926156
4657.00   3.68329501   0.07903311
4658.00   3.73685241   0.07948811
4659.00   3.79219508   0.07999095
4660.00   3.77547908   0.07973733
4661.00   3.69779325   0.07920860
4662.00   3.63635349   0.07871040
4663.00   3.63556194   0.07813120
4664.00   3.68401098   0.07762935
4665.00   3.68230319   0.07698116
4666.00   3.61871433   0.07624459
4667.00   3.56806827   0.07595304
4668.00   3.56858993   0.07620078
4669.00   3.65136647   0.07678342
4670.00   3.65739226   0.07710753
4671.00   3.60986757   0.07714086
4672.00   3.58157706   0.07730983
4673.00   3.63161135   0.07748377
4674.00   3.65544820   0.07736232
4675.00   3.59098935   0.07730293
4676.00   3.67024040   0.07741334
4677.00   3.66958904   0.07696081
4678.00   3.66159415   0.07652325
4679.00   3.58881974   0.07606564
4680.00   3.55475163   0.07603345
4681.00   3.58771825   0.07624213
4682.00   3.76076961   0.07708323
4683.00   3.67223144   0.07683422
4684.00   3.57580757   0.07671724
4685.00   3.64157772   0.07682411
4686.00   3.67344666   0.07676737
4687.00   3.64097452   0.07665700
4688.00   3.57572198   0.07632595
4689.00   3.61119723   0.07657231
4690.00   3.69660211   0.07683205
4691.00   3.67366481   0.07662343
4692.00   3.67258644   0.07665345
4693.00   3.68462181   0.07674185
4694.00   3.64002681   0.07664625
4695.00   3.59315896   0.07648560
4696.00   3.59444690   0.07634547
4697.00   3.67082524   0.07618454
4698.00   3.72103095   0.07595619
4699.00   3.69817519   0.07554304
4700.00   3.61049271   0.07475226
4701.00   3.59453511   0.07463793
4702.00   3.67883062   0.07483193
4703.00   3.60902262   0.07472570
4704.00   3.58176517   0.07491446
4705.00   3.64644146   0.07512049
4706.00   3.67018795   0.07524238
4707.00   3.73463297   0.07545117
4708.00   3.71500397   0.07537257
4709.00   3.65696120   0.07547341
4710.00   3.70510244   0.07582124
4711.00   3.72199035   0.07583114
4712.00   3.65763092   0.07572812
4713.00   3.57796979   0.07563840
4714.00   3.57502103   0.07564918
4715.00   3.65049863   0.07585115
4716.00   3.70282960   0.07610769
4717.00   3.69977140   0.07643048
4718.00   3.69785857   0.07652570
4719.00   3.70595622   0.07648040
4720.00   3.70052576   0.07659870
4721.00   3.61596489   0.07632936
4722.00   3.60426664   0.07627091
4723.00   3.61031485   0.07639005
4724.00   3.57803702   0.07607964
4725.00   3.57379246   0.07576394
4726.00   3.60464382   0.07564049
4727.00   3.64983869   0.07533648
4728.00   3.56807280   0.07489643
4729.00   3.51111770   0.07479769
4730.00   3.56238246   0.07477273
4731.00   3.64939642   0.07519476
4732.00   3.67218900   0.07561209
4733.00   3.69474030   0.07577200
4734.00   3.63110328   0.07536589
4735.00   3.56030941   0.07501509
4736.00   3.66935468   0.07534954
4737.00   3.52186155   0.07480483
4738.00   3.62139106   0.07527032
4739.00   3.63837790   0.07546329
4740.00   3.68272829   0.07579385
4741.00   3.55395913   0.07558664
4742.00   3.68141007   0.07630684
4743.00   3.83015990   0.07674574
4744.00   3.76596904   0.07624660
4745.00   3.65933633   0.07554445
4746.00   3.69955420   0.07533689
4747.00   3.73629618   0.07516039
4748.00   3.64975929   0.07476859
4749.00   3.57005072   0.07450367
4750.00   3.58487582   0.07443115
4751.00   3.59613228   0.07434208
4752.00   3.60360289   0.07424422
4753.00   3.65234160   0.07426015
4754.00   3.71541214   0.07434370
4755.00   3.72425175   0.07421448
4756.00   3.63944793   0.07392959
4757.00   3.66329432   0.07417141
4758.00   3.69190598   0.07439373
4759.00   3.61855507   0.07410876
4760.00   3.69268560   0.07404640
4761.00   3.65210915   0.07351169
4762.00   3.55000639   0.07295011
4763.00   3.63368654   0.07315730
4764.00   3.59354305   0.07262362
4765.00   3.62172031   0.07258368
4766.00   3.65846562   0.07310000
4767.00   3.60957932   0.07308381
4768.00   3.55058122   0.07317226
4769.00   3.56626606   0.07315049
4770.00   3.66639996   0.07362629
4771.00   3.63201737   0.07342385
4772.00   3.62842607   0.07345401
4773.00   3.60829282   0.07363081
4774.00   3.62685728   0.07383042
4775.00   3.65314078   0.07404640
4776.00   3.67561293   0.07429684
4777.00   3.73358178   0.07446536
4778.00   3.65416431   0.07419804
4779.00   3.53546000   0.07373566
4780.00   3.46716499   0.07312577
4781.00   3.46490431   0.07299698
4782.00   3.61007547   0.07325143
4783.00   3.59430003   0.07278890
4784.00   3.50363445   0.07242492
4785.00   3.60243273   0.07258283
4786.00   3.59283161   0.07236496
4787.00   3.52825499   0.07173698
4788.00   3.65804243   0.07234892
4789.00   3.61270618   0.07226396
4790.00   3.45777965   0.07163043
4791.00   3.49357438   0.07201141
4792.00   3.51050234   0.07211751
4793.00   3.52924323   0.07231649
4794.00   3.58207679   0.07250949
4795.00   3.57835579   0.07219209
4796.00   3.52669168   0.07181217
4797.00   3.47626591   0.07132635
4798.00   3.46183062   0.07129806
4799.00   3.49459219   0.07158149
4800.00   3.48041677   0.07132781
4801.00   3.45461535   0.07116171
4802.00   3.49099183   0.07135312
4803.00   3.53711772   0.07139780
4804.00   3.52041745   0.07125736
4805.00   3.46336603   0.07097484
4806.00   3.47021270   0.07078526
4807.00   3.48104453   0.07066344
4808.00   3.46663570   0.07066110
4809.00   3.51068735   0.07098881
4810.00   3.47491288   0.07090605
4811.00   3.45584202   0.07078528
4812.00   3.56431603   0.07119093
4813.00   3.51314998   0.07110000
4814.00   3.43385172   0.07083087
4815.00   3.37591147   0.07052162
4816.00   3.33608747   0.07064698
4817.00   3.30864239   0.07074369
4818.00   3.36117911   0.07094380
4819.00   3.34126496   0.07068705
4820.00   3.33525968   0.07052420
4821.00   3.34898853   0.07032553
4822.00   3.47263169   0.07076684
4823.00   3.50609612   0.07077520
4824.00   3.45348120   0.07070494
4825.00   3.49121261   0.07082555
4826.00   3.53808880   0.07103947
4827.00   3.54531550   0.07116539
4828.00   3.37970638   0.07049689
4829.00   3.33568287   0.07022032
4830.00   3.43200374   0.07037294
4831.00   3.43397593   0.07033081
4832.00   3.45685792   0.07063781
4833.00   3.35706210   0.07048930
4834.00   3.33916259   0.07036493
4835.00   3.36518598   0.07040744
4836.00   3.29998493   0.07014334
4837.00   3.38865471   0.07034878
4838.00   3.37930965   0.07009050
4839.00   3.42627168   0.07006831
4840.00   3.43126750   0.06991447
4841.00   3.34995747   0.06955568
4842.00   3.42412043   0.06994639
4843.00   3.38093495   0.06983788
4844.00   3.31958032   0.06964613
4845.00   3.43108749   0.06999267
4846.00   3.51608086   0.07027452
4847.00   3.43325710   0.07005070
4848.00   3.35947824   0.06977906
4849.00   3.39761615   0.06982330
4850.00   3.44075441   0.06997984
4851.00   3.36154318   0.06955108
4852.00   3.26985955   0.06874334
4853.00   3.36223960   0.06875927
4854.00   3.48401976   0.06898741
4855.00   3.46545315   0.06843402
4856.00   3.40415430   0.06777552
4857.00   3.38843298   0.06721913
4858.00   3.38667107   0.06628493
4859.00   3.37448406   0.06547972
4860.00   3.41573763   0.06526721
4861.00   3.38154221   0.06488948
4862.00   3.33800006   0.06512050
4863.00   3.27552366   0.06565641
4864.00   3.21213365   0.06588454
4865.00   3.26172304   0.06676167
4866.00   3.43546915   0.06804637
4867.00   3.35495782   0.06803694
4868.00   3.31980848   0.06786214
4869.00   3.33804440   0.06769327
4870.00   3.32864833   0.06741877
4871.00   3.28060436   0.06725591
4872.00   3.30953121   0.06734834
4873.00   3.35840654   0.06789998
4874.00   3.30116224   0.06791170
4875.00   3.38846731   0.06821153
4876.00   3.40331507   0.06846898
4877.00   3.28730559   0.06822289
4878.00   3.29006815   0.06826157
4879.00   3.24455285   0.06807090
4880.00   3.29119611   0.06831182
4881.00   3.34448314   0.06846192
4882.00   3.34152055   0.06797068
4883.00   3.35837173   0.06769832
4884.00   3.29884601   0.06731497
4885.00   3.25065517   0.06673583
4886.00   3.24256063   0.06645489
4887.00   3.18221903   0.06585769
4888.00   3.23878932   0.06585510
4889.00   3.33545923   0.06606735
4890.00   3.29081106   0.06597568
4891.00   3.24663877   0.06608003
4892.00   3.21342754   0.06643582
4893.00   3.20023227   0.06689243
4894.00   3.22903371   0.06730270
4895.00   3.19511247   0.06750322
4896.00   3.13894510   0.06746908
4897.00   3.18004346   0.06758280
4898.00   3.22573900   0.06785109
4899.00   3.19010568   0.06774191
4900.00   3.15073848   0.06735192
4901.00   3.16433620   0.06707917
4902.00   3.22372842   0.06719805
4903.00   3.20240164   0.06739280
4904.00   3.15032029   0.06731378
4905.00   3.18202400   0.06725910
4906.00   3.12270713   0.06697312
4907.00   3.14490080   0.06685085
4908.00   3.11809421   0.06635450
4909.00   3.01843047   0.06594847
4910.00   3.17685485   0.06655079
4911.00   3.31234455   0.06698379
4912.00   3.20677924   0.06681392
4913.00   3.00856400   0.06630939
4914.00   3.06378555   0.06676205
4915.00   3.12466788   0.06671423
4916.00   3.14687753   0.06613750
4917.00   3.14624238   0.06548291
4918.00   3.14476395   0.06495312
4919.00   3.12326026   0.06459247
4920.00   3.09808636   0.06433277
4921.00   3.11837268   0.06441956
4922.00   3.12659264   0.06485635
4923.00   3.11202502   0.06511232
4924.00   3.15857291   0.06532415
4925.00   3.22870922   0.06585487
4926.00   3.06832242   0.06576946
4927.00   3.11208248   0.06607785
4928.00   3.10373378   0.06614120
4929.00   3.02049589   0.06571243
4930.00   3.02783871   0.06553524
4931.00   3.04828763   0.06549973
4932.00   3.08842778   0.06564103
4933.00   3.09121799   0.06526493
4934.00   3.06076550   0.06507590
4935.00   3.08782673   0.06499186
4936.00   3.08221722   0.06456363
4937.00   3.10190320   0.06451260
4938.00   3.11930060   0.06461333
4939.00   3.11950159   0.06476172
4940.00   3.16104364   0.06529486
4941.00   3.16138697   0.06565320
4942.00   3.09445381   0.06554376
4943.00   3.04996085   0.06527408
4944.00   3.06047058   0.06516092
4945.00   3.07895541   0.06533725
4946.00   3.04106402   0.06524634
4947.00   2.98321319   0.06496974
4948.00   3.06085443   0.06534120
4949.00   3.08991575   0.06547110
4950.00   2.99112201   0.06512672
4951.00   3.04510045   0.06535234
4952.00   3.11167574   0.06561466
4953.00   3.14402962   0.06564838
4954.00   3.14579463   0.06517467
4955.00   3.10778666   0.06456751
4956.00   2.99546671   0.06382870
4957.00   2.97244239   0.06364971
4958.00   3.05668497   0.06385651
4959.00   3.07255960   0.06428747
4960.00   3.05365896   0.06483619
4961.00   3.09840274   0.06516039
4962.00   3.20835423   0.06538014
4963.00   3.12993908   0.06511171
4964.00   3.01958704   0.06473545
4965.00   3.11430955   0.06494464
4966.00   2.98842645   0.06462412
4967.00   2.97497249   0.06431976
4968.00   2.93172002   0.06424614
4969.00   3.04099822   0.06481344
4970.00   3.01674104   0.06482369
4971.00   2.91222334   0.06458635
4972.00   3.09305477   0.06541123
4973.00   3.04403520   0.06534717
4974.00   3.01486039   0.06542080
4975.00   3.00377417   0.06559055
4976.00   3.12387347   0.06597146
4977.00   3.06261873   0.06569162
4978.00   2.94489694   0.06509086
4979.00   3.03339720   0.06516612
4980.00   3.11170435   0.06530756
4981.00   3.10004640   0.06503326
4982.00   3.03059244   0.06454901
4983.00   2.95818424   0.06424959
4984.00   2.96293950   0.06433113
4985.00   2.97690272   0.06449270
4986.00   2.99452519   0.06460997
4987.00   2.87669635   0.06425753
4988.00   2.93432045   0.06439807
4989.00   3.04702568   0.06467020
4990.00   2.95078778   0.06416927
4991.00   2.93336678   0.06393290
4992.00   2.96355844   0.06401677
4993.00   2.90814948   0.06370157
4994.00   2.93246531   0.06361342
4995.00   2.99363947   0.06368644
4996.00   3.03061080   0.06355967
4997.00   2.97757125   0.06323121
4998.00   2.85275197   0.06256901
4999.00   2.88076162   0.06228543
5000.00   2.90007663   0.06217340
5001.00   2.89609075   0.06194798
5002.00   2.89795280   0.06158430
5003.00   2.85654616   0.06123713
5004.00   2.88023615   0.06123087
5005.00   2.84979153   0.06098965
5006.00   2.82011557   0.06098393
5007.00   2.89613295   0.06156052
5008.00   2.84868050   0.06146414
5009.00   2.87837267   0.06160563
5010.00   2.87908792   0.06166187
5011.00   2.83797431   0.06136873
5012.00   2.88088083   0.06116984
5013.00   2.88880920   0.06097427
5014.00   2.82463050   0.06031081
5015.00   2.82629609   0.06011393
5016.00   2.81650090   0.06025641
5017.00   2.72068095   0.05983309
5018.00   2.78032804   0.05996753
5019.00   2.86303616   0.06031971
5020.00   2.83340335   0.06044077
5021.00   2.80516124   0.06037979
5022.00   2.77920794   0.06008303
5023.00   2.83746767   0.06020498
5024.00   2.91344619   0.06033118
5025.00   2.84013200   0.06013301
5026.00   2.84169030   0.06015841
5027.00   2.79733348   0.05994281
5028.00   2.86112404   0.06021557
5029.00   2.84427953   0.06037756
5030.00   2.78807354   0.06025681
5031.00   2.84129357   0.06042995
5032.00   2.87447429   0.06057071
5033.00   2.82369709   0.06037801
5034.00   2.81080365   0.06016327
5035.00   2.83754849   0.06000497
5036.00   2.85979843   0.05984319
5037.00   2.84122801   0.05950629
5038.00   2.88370967   0.05933942
5039.00   2.91315746   0.05913683
5040.00   2.79546332   0.05850155
5041.00   2.77652383   0.05842917
5042.00   2.86430860   0.05904094
5043.00   2.83637476   0.05934887
5044.00   2.77505636   0.05934506
5045.00   2.75985074   0.05929651
5046.00   2.79718876   0.05935914
5047.00   2.80781245   0.05930365
5048.00   2.77539635   0.05904667
5049.00   2.84676456   0.05924313
5050.00   2.84101224   0.05921306
5051.00   2.78742933   0.05899388
5052.00   2.85371041   0.05939768
5053.00   2.87398577   0.05971269
5054.00   2.90954924   0.05998557
5055.00   2.92557836   0.06005712
5056.00   2.87230206   0.05987943
5057.00   2.82633877   0.05975455
5058.00   2.85692072   0.05997662
5059.00   2.95820618   0.06059054
5060.00   2.96167755   0.06065090
5061.00   2.88993716   0.06016789
5062.00   2.88894868   0.06016672
5063.00   2.83352804   0.06009971
5064.00   2.87233925   0.06001434
5065.00   2.83804774   0.05953566
5066.00   2.82435822   0.05969226
5067.00   2.84253001   0.05976978
5068.00   2.88450933   0.05998153
5069.00   2.86376143   0.06000251
5070.00   2.90050316   0.06009297
5071.00   2.94094634   0.06006620
5072.00   2.88729858   0.05989218
5073.00   2.85827112   0.05979330
5074.00   2.85837817   0.05970153
5075.00   2.89969587   0.05983054
5076.00   2.94093156   0.05981928
5077.00   2.92070842   0.05960107
5078.00   2.90507627   0.05963477
5079.00   2.91249251   0.05977310
5080.00   2.96935439   0.06033377
5081.00   3.02419996   0.06109183
5082.00   2.90547347   0.06108753
5083.00   2.83298421   0.06113961
5084.00   2.85729885   0.06139624
5085.00   2.84302545   0.06145639
5086.00   2.91578960   0.06188496
5087.00   2.93590093   0.06172843
5088.00   2.86816072   0.06086797
5089.00   2.94152641   0.06080651
5090.00   3.01147676   0.06099123
5091.00   2.95548797   0.06058895
5092.00   2.92572951   0.06025695
5093.00   2.93518519   0.06018086
5094.00   2.87528968   0.05989534
5095.00   2.84184003   0.05962970
5096.00   2.95488405   0.05977956
5097.00   3.01795149   0.05987934
5098.00   2.96374178   0.05983836
5099.00   2.93868446   0.05986324
5100.00   2.87912297   0.05958877
5101.00   2.88402891   0.05965179
5102.00   2.83759451   0.05956072
5103.00   2.79490304   0.05924018
5104.00   2.97812867   0.05960511
5105.00   2.99856544   0.05975028
5106.00   2.95412683   0.05940283
5107.00   2.96587110   0.05921243
5108.00   2.95996881   0.05931679
5109.00   2.86230826   0.05900006
5110.00   2.85911512   0.05905790
5111.00   2.94485450   0.05943143
5112.00   3.00048614   0.05962962
5113.00   2.93334460   0.05944788
5114.00   2.88015270   0.05945924
5115.00   2.91396713   0.05979622
5116.00   2.86133218   0.05958468
5117.00   2.88796496   0.05975982
5118.00   2.89407706   0.05958972
5119.00   2.87176609   0.05934918
5120.00   2.80915427   0.05892995
5121.00   2.84667516   0.05878526
5122.00   2.90296602   0.05884308
5123.00   2.91894007   0.05861675
5124.00   2.95773816   0.05847457
5125.00   2.99115825   0.05853093
5126.00   2.90416598   0.05816788
5127.00   2.86476803   0.05804066
5128.00   2.87751245   0.05814994
5129.00   2.90972710   0.05822373
5130.00   2.94857645   0.05832106
5131.00   2.90263510   0.05829910
5132.00   2.86175799   0.05830595
5133.00   2.89531064   0.05828724
5134.00   2.95402837   0.05837769
5135.00   2.91481233   0.05831569
5136.00   2.82281828   0.05787479
5137.00   2.87329698   0.05785113
5138.00   2.90648031   0.05787625
5139.00   2.84950757   0.05758766
5140.00   2.89333320   0.05780996
5141.00   2.95618773   0.05803046
5142.00   2.92384791   0.05770586
5143.00   2.82538509   0.05737349
5144.00   2.81949854   0.05742942
5145.00   2.87195277   0.05768808
5146.00   2.89383221   0.05786826
5147.00   2.84023714   0.05773117
5148.00   2.76491618   0.05754227
5149.00   2.78215981   0.05763588
5150.00   2.76313949   0.05753669
5151.00   2.71281862   0.05747470
5152.00   2.83813047   0.05803004
5153.00   2.83601260   0.05812962
5154.00   2.79512119   0.05792310
5155.00   2.81089568   0.05784580
5156.00   2.71855497   0.05756137
5157.00   2.71624255   0.05768497
5158.00   2.78776217   0.05783845
5159.00   2.87174487   0.05815384
5160.00   2.97925401   0.05845726
5161.00   2.90583992   0.05771658
5162.00   2.76896811   0.05678897
5163.00   2.76142502   0.05655854
5164.00   2.80372477   0.05615818
5165.00   2.76223683   0.05539303
5166.00   2.74777937   0.05506688
5167.00   2.84616446   0.05508734
5168.00   2.88546395   0.05501429
5169.00   2.86909628   0.05489518
5170.00   2.83495402   0.05455200
5171.00   2.77940559   0.05420601
5172.00   2.79927111   0.05437038
5173.00   2.79797840   0.05473071
5174.00   2.75475359   0.05504337
5175.00   2.72365999   0.05548114
5176.00   2.80552864   0.05607768
5177.00   2.87547588   0.05648756
5178.00   2.82365084   0.05644717
5179.00   2.75388050   0.05600620
5180.00   2.77251029   0.05555812
5181.00   2.79911709   0.05503078
5182.00   2.77976751   0.05443343
5183.00   2.80263758   0.05436939
5184.00   2.79216433   0.05443377
5185.00   2.73009014   0.05438752
5186.00   2.78936410   0.05493556
5187.00   2.87646532   0.05558370
5188.00   2.84535766   0.05551875
5189.00   2.79747200   0.05520437
5190.00   2.82616973   0.05538470
5191.00   2.87592030   0.05559437
5192.00   2.86775613   0.05551835
5193.00   2.88258386   0.05560442
5194.00   2.83809328   0.05556677
5195.00   2.83782959   0.05590446
5196.00   2.88765287   0.05634791
5197.00   2.88092804   0.05660162
5198.00   2.88036180   0.05676068
5199.00   2.85629916   0.05659232
5200.00   2.82651687   0.05636938
5201.00   2.84764552   0.05631815
5202.00   2.81543088   0.05609709
5203.00   2.86271358   0.05598640
5204.00   2.89519644   0.05590374
5205.00   2.95290732   0.05574761
5206.00   2.92150998   0.05547971
5207.00   2.91100836   0.05559424
5208.00   2.87710261   0.05553512
5209.00   2.86397552   0.05576708
5210.00   2.90843129   0.05604697
5211.00   2.88301778   0.05594762
5212.00   2.86854553   0.05592258
5213.00   2.85098362   0.05577685
5214.00   2.82487822   0.05559146
5215.00   2.83152294   0.05552752
5216.00   2.84353971   0.05548546
5217.00   2.88402963   0.05574390
5218.00   2.93873787   0.05607787
5219.00   2.94103003   0.05611483
5220.00   2.87950897   0.05587148
5221.00   2.86183047   0.05568938
5222.00   2.87701488   0.05540468
5223.00   2.89751983   0.05527111
5224.00   2.89865494   0.05509219
5225.00   2.85539889   0.05472082
5226.00   2.83100271   0.05439591
5227.00   2.86143374   0.05428024
5228.00   2.89612460   0.05441012
5229.00   2.84227133   0.05441438
5230.00   2.82202053   0.05448072
5231.00   2.95065475   0.05490679
5232.00   2.97037244   0.05484590
5233.00   2.87744737   0.05446148
5234.00   2.94123483   0.05477525
5235.00   2.98399734   0.05504429
5236.00   2.94144392   0.05498719
5237.00   2.96891522   0.05517273
5238.00   2.88911128   0.05493501
5239.00   2.84345174   0.05472787
5240.00   2.86040640   0.05476080
5241.00   2.81434608   0.05455308
5242.00   2.82823825   0.05472236
5243.00   2.82803679   0.05466004
5244.00   2.81301689   0.05451823
5245.00   2.80264091   0.05432213
5246.00   2.86936784   0.05433151
5247.00   2.91887212   0.05436480
5248.00   2.88093781   0.05414173
5249.00   2.89356279   0.05401427
5250.00   2.91744924   0.05385753
5251.00   2.89590812   0.05372012
5252.00   2.91503930   0.05397020
5253.00   2.84455800   0.05371432
5254.00   2.88511181   0.05387808
5255.00   2.91484094   0.05391222
5256.00   2.97531986   0.05439558
5257.00   2.95770717   0.05443210
5258.00   2.94270277   0.05444611
5259.00   2.94181418   0.05419783
5260.00   2.97657490   0.05395611
5261.00   2.95898342   0.05353197
5262.00   2.88276410   0.05296856
5263.00   2.91113949   0.05279614
5264.00   2.93563104   0.05255653
5265.00   2.89949751   0.05217844
5266.00   2.94463372   0.05211319
5267.00   2.92361426   0.05189716
5268.00   2.92845106   0.05190449
5269.00   2.96192598   0.05209406
5270.00   3.00481486   0.05231656
5271.00   2.98141861   0.05242533
5272.00   2.91328073   0.05234732
5273.00   2.93703985   0.05243687
5274.00   2.97457957   0.05259949
5275.00   2.92983103   0.05261888
5276.00   2.88665795   0.05265276
5277.00   2.89530063   0.05285743
5278.00   2.90001369   0.05297847
5279.00   2.92039061   0.05292189
5280.00   2.94692397   0.05280956
5281.00   2.87366939   0.05243479
5282.00   2.83953857   0.05230317
5283.00   2.90974784   0.05262835
5284.00   2.90144682   0.05277605
5285.00   2.91540098   0.05307382
5286.00   2.98044944   0.05333612
5287.00   2.95945716   0.05323087
5288.00   2.84563947   0.05277811
5289.00   2.85814047   0.05278483
5290.00   2.95585680   0.05324332
5291.00   2.95336223   0.05328084
5292.00   2.89788389   0.05295390
5293.00   2.93420386   0.05311647
5294.00   2.93788862   0.05314021
5295.00   2.92404270   0.05282434
5296.00   2.91976333   0.05259133
5297.00   2.88369226   0.05232738
5298.00   2.92909980   0.05235695
5299.00   2.92186689   0.05243180
5300.00   2.90824032   0.05236917
5301.00   2.95275784   0.05247942
5302.00   2.90294814   0.05234526
5303.00   2.87218833   0.05232226
5304.00   2.91479325   0.05242331
5305.00   2.92845225   0.05251078
5306.00   2.94499874   0.05259716
5307.00   2.88526678   0.05245859
5308.00   2.89614940   0.05249426
5309.00   2.91938901   0.05250565
5310.00   2.88843012   0.05239598
5311.00   2.88948703   0.05245634
5312.00   2.86548424   0.05242538
5313.00   2.82784271   0.05229284
5314.00   2.84138370   0.05220909
5315.00   2.85810328   0.05207792
5316.00   2.90409756   0.05220350
5317.00   2.91960764   0.05207607
5318.00   2.86089134   0.05190931
5319.00   2.86611676   0.05197305
5320.00   2.83117890   0.05172955
5321.00   2.80734253   0.05157298
5322.00   2.84741402   0.05156439
5323.00   2.84077477   0.05128051
5324.00   2.79802155   0.05099314
5325.00   2.74463105   0.05073563
5326.00   2.73345828   0.05051192
5327.00   2.79690099   0.05061776
5328.00   2.82047176   0.05080652
5329.00   2.80505061   0.05095811
5330.00   2.79890895   0.05106999
5331.00   2.77559447   0.05107883
5332.00   2.81891394   0.05137584
5333.00   2.83279538   0.05146114
5334.00   2.79078150   0.05134711
5335.00   2.80068707   0.05148869
5336.00   2.75376987   0.05130219
5337.00   2.75703907   0.05115149
5338.00   2.70333409   0.05096656
5339.00   2.73058915   0.05115147
5340.00   2.75253105   0.05130751
5341.00   2.72761774   0.05125948
5342.00   2.75093842   0.05138731
5343.00   2.68407774   0.05110329
5344.00   2.66750050   0.05094308
5345.00   2.81238508   0.05160996
5346.00   2.73532748   0.05138621
5347.00   2.73775148   0.05157920
5348.00   2.73919368   0.05187902
5349.00   2.87820554   0.05252334
5350.00   2.80650544   0.05207843
5351.00   2.70225048   0.05166923
5352.00   2.76116586   0.05193689
5353.00   2.71199131   0.05183546
5354.00   2.70797706   0.05195842
5355.00   2.77075124   0.05234873
5356.00   2.74624300   0.05238744
5357.00   2.73848581   0.05228052
5358.00   2.75200224   0.05207325
5359.00   2.73516226   0.05188408
5360.00   2.75886130   0.05196282
5361.00   2.73690891   0.05183163
5362.00   2.76134682   0.05174791
5363.00   2.73632383   0.05153322
5364.00   2.76092434   0.05152797
5365.00   2.73340034   0.05135691
5366.00   2.65440893   0.05097920
5367.00   2.69803619   0.05104894
5368.00   2.70373440   0.05100922
5369.00   2.63005137   0.05059456
5370.00   2.67511582   0.05070433
5371.00   2.79069686   0.05137743
5372.00   2.78515506   0.05163428
5373.00   2.68040156   0.05137624
5374.00   2.66096973   0.05148715
5375.00   2.72192526   0.05183835
5376.00   2.73369837   0.05186176
5377.00   2.68109274   0.05169407
5378.00   2.66251802   0.05170910
5379.00   2.73324323   0.05210373
5380.00   2.71671081   0.05205161
5381.00   2.69556284   0.05185811
5382.00   2.73004913   0.05178340
5383.00   2.69311523   0.05168280
5384.00   2.72119737   0.05200646
5385.00   2.69614029   0.05213100
5386.00   2.62820864   0.05179033
5387.00   2.63609624   0.05183769
5388.00   2.61090326   0.05195559
5389.00   2.57384682   0.05175342
5390.00   2.65101123   0.05215025
5391.00   2.70855808   0.05248369
5392.00   2.60524654   0.05210976
5393.00   2.65313435   0.05237885
5394.00   2.68067336   0.05230258
5395.00   2.65535951   0.05206346
5396.00   2.63782883   0.05223636
5397.00   2.64027929   0.05230659
5398.00   2.60058808   0.05214248
5399.00   2.61753917   0.05234691
5400.00   2.59463477   0.05234802
5401.00   2.59653378   0.05235532
5402.00   2.63210034   0.05242169
5403.00   2.60814953   0.05242925
5404.00   2.60189080   0.05273687
5405.00   2.54067349   0.05244903
5406.00   2.58051467   0.05240808
5407.00   2.58771157   0.05263678
5408.00   2.61690116   0.05280483
5409.00   2.55648613   0.05261429
5410.00   2.51454973   0.05274869
5411.00   2.52519369   0.05311248
5412.00   2.54856062   0.05353170
5413.00   2.56579661   0.05386015
5414.00   2.56310654   0.05394756
5415.00   2.57785368   0.05423711
5416.00   2.57290363   0.05452448
5417.00   2.54158139   0.05451348
5418.00   2.51282001   0.05454676
5419.00   2.41468859   0.05425343
5420.00   2.41808605   0.05417520
5421.00   2.49230337   0.05446874
5422.00   2.50194883   0.05465403
5423.00   2.52656245   0.05481669
5424.00   2.46795058   0.05465747
5425.00   2.44186521   0.05471010
5426.00   2.46586514   0.05481829
5427.00   2.42159247   0.05471297
5428.00   2.37284088   0.05444368
5429.00   2.40706563   0.05468025
5430.00   2.50640512   0.05522801
5431.00   2.49452615   0.05522726
5432.00   2.41178441   0.05505497
5433.00   2.44136977   0.05540905
5434.00   2.43250847   0.05548170
5435.00   2.41048026   0.05551397
5436.00   2.55200982   0.05648346
5437.00   2.45428205   0.05620904
5438.00   2.36568952   0.05643719
5439.00   2.41849256   0.05682860
5440.00   2.38550043   0.05688850
5441.00   2.40277910   0.05684661
5442.00   2.47573590   0.05729499
5443.00   2.46622133   0.05753088
5444.00   2.40290356   0.05746745
5445.00   2.32193136   0.05704300
5446.00   2.32096195   0.05695266
5447.00   2.37994933   0.05748302
5448.00   2.42380619   0.05791812
5449.00   2.48935580   0.05846616
5450.00   2.38048172   0.05814732
5451.00   2.49263239   0.05881902
5452.00   2.53929019   0.05900022
5453.00   2.50633192   0.05881691
5454.00   2.47354817   0.05872642
5455.00   2.43730998   0.05904630
5456.00   2.36728311   0.06046071
5457.00   2.33008909   0.06316277
5458.00   2.36230683   0.06636736
5459.00   2.39723229   0.06883309
5460.00   2.38466406   0.06991007
5461.00   2.36124778   0.06958649
5462.00   2.36793900   0.06820945
5463.00   2.37069726   0.06665730
5464.00   2.36208963   0.06556161
5465.00   2.34896088   0.06468062
5466.00   2.29569435   0.06354903
5467.00   2.30538058   0.06283259
5468.00   2.38309765   0.06248470
5469.00   2.38059306   0.06173405
5470.00   2.34273100   0.06111022
5471.00   2.33792567   0.06083759
5472.00   2.34651327   0.06063853
5473.00   2.33419633   0.06024211
5474.00   2.29944253   0.05974911
5475.00   2.32887483   0.05987516
5476.00   2.35692716   0.06010059
5477.00   2.32141304   0.05996932
5478.00   2.33927131   0.06039880
5479.00   2.33993435   0.06072151
5480.00   2.30325103   0.06061980
5481.00   2.24557567   0.06058249
5482.00   2.26662111   0.06123559
5483.00   2.26822257   0.06121368
5484.00   2.31155396   0.06148716
5485.00   2.43481088   0.06184581
5486.00   2.44152451   0.06177157
5487.00   2.26003456   0.06104672
5488.00   2.26064801   0.06104508
5489.00   2.49850440   0.06296707
5490.00   2.44406748   0.06316113
5491.00   2.44924855   0.06457865
5492.00   2.18586636   0.06689632
5493.00   2.31429696   0.06282730
5494.00   2.27243900   0.05870951
5495.00   2.45125055   0.05925288
5496.00   2.60024428   0.05943835
5497.00   2.53963161   0.06021800
5498.00   2.49975324   0.05915953
5499.00   2.46608973   0.05750202
5500.00   2.23482180   0.05564697
5501.00   2.39026833   0.05561528
5502.00   2.46997666   0.05623833
5503.00   2.43226004   0.05659745
5504.00   2.47798514   0.05477077
5505.00   2.41400814   0.05383526
5506.00   2.36259842   0.05335493
5507.00   2.44960380   0.05442902
5508.00   2.44597149   0.05713698
5509.00   2.53966451   0.05364606
5510.00   2.32593656   0.05345005
5511.00   2.33150053   0.05265145
5512.00   2.50616884   0.05496737
5513.00   2.67172432   0.05124064
5514.00   2.57185340   0.05034980
5515.00   2.44209599   0.05090002
5516.00   2.47935414   0.05104401
5517.00   2.46117926   0.05094813
5518.00   2.40530348   0.05064230
5519.00   2.45089626   0.04948400
5520.00   2.35845947   0.04920945
5521.00   2.37653494   0.04810592
5522.00   2.35404897   0.04791560
5523.00   2.39239001   0.04762147
5524.00   2.47799873   0.04732412
5525.00   2.56992888   0.04687711
5526.00   2.51301336   0.04601559
5527.00   2.50353646   0.04597363
5528.00   2.53561735   0.04782817
5529.00   2.27188230   0.04639993
5530.00   2.21723914   0.04411474
5531.00   2.48585558   0.04515751
5532.00   2.51040244   0.04483178
5533.00   2.40837479   0.04376492
5534.00   2.42248034   0.04402402
5535.00   2.33762002   0.04331805
5536.00   2.47614765   0.04349462
5537.00   2.55917883   0.04367205
5538.00   2.53320527   0.04341864
5539.00   2.49293542   0.04305753
5540.00   2.43857479   0.04260421
5541.00   2.52992082   0.04287529
5542.00   2.58636928   0.04315215
5543.00   2.61767530   0.04278978
5544.00   2.58169055   0.04249105
5545.00   2.49276686   0.04150723
5546.00   2.44098830   0.04407434
5547.00   2.32502842   0.04971507
5548.00   2.49054766   0.04120346
5549.00   2.40441561   0.04062835
5550.00   2.59663367   0.04139395
5551.00   2.61596322   0.04305781
5552.00   2.48049879   0.04190576
5553.00   2.48151922   0.04021878
5554.00   2.54412365   0.04058182
5555.00   2.57521319   0.04054040
5556.00   2.58594084   0.04032413
5557.00   2.54518437   0.04021686
5558.00   2.37890100   0.04220456
5559.00   2.39185905   0.04262918
5560.00   2.54931998   0.03828877
5561.00   2.48861670   0.03844649
5562.00   2.42942548   0.03817976
5563.00   2.49015403   0.03819653
5564.00   2.46787167   0.03776519
5565.00   2.42832923   0.03738192
5566.00   2.51357555   0.03753017
5567.00   2.45833945   0.03728566
5568.00   2.43930697   0.03693665
5569.00   2.41982889   0.03676634
5570.00   2.40190887   0.03676325
5571.00   2.43749070   0.03663602
5572.00   2.42511010   0.03764417
5573.00   2.41887856   0.03975675
5574.00   2.49743772   0.03864062
5575.00   2.44769001   0.03894770
5576.00   2.45128012   0.04083604
5577.00   2.53822517   0.04349180
5578.00   2.50456047   0.04563427
5579.00   2.35877323   0.04553052
5580.00   2.36857104   0.04369864
5581.00   2.40148664   0.03978185
5582.00   2.35521770   0.03576040
5583.00   2.39766812   0.03487885
5584.00   2.46787691   0.03498490
5585.00   2.53840852   0.03497526
5586.00   2.49389911   0.03465549
5587.00   2.35586143   0.03406761
5588.00   2.32153869   0.03392566
5589.00   2.36123252   0.03395849
5590.00   2.29075646   0.03411493
5591.00   2.29543972   0.03370237
5592.00   2.36206150   0.03363007
5593.00   2.32288361   0.03357222
5594.00   2.24743056   0.03324686
5595.00   2.23722315   0.03298238
5596.00   2.34153724   0.03336771
5597.00   2.42980695   0.03427097
5598.00   2.43459821   0.03359044
5599.00   2.29694414   0.03391644
5600.00   2.18282104   0.03621092
5601.00   2.23248744   0.03305484
5602.00   2.38002324   0.03347404
5603.00   2.39293909   0.03421015
5604.00   2.30570197   0.03212400
5605.00   2.38141942   0.03272378
5606.00   2.42491055   0.03270637
5607.00   2.41137815   0.03267854
5608.00   2.42959905   0.03306104
5609.00   2.31883097   0.03227739
5610.00   2.31995344   0.03179605
5611.00   2.38747883   0.03186256
5612.00   2.33457398   0.03176428
5613.00   2.24755239   0.03149959
5614.00   2.31107593   0.03143252
5615.00   2.22450590   0.03080079
5616.00   2.30402541   0.03288321
5617.00   2.41328430   0.03317594
5618.00   2.37614489   0.03202892
5619.00   2.35152173   0.03180920
5620.00   2.34340930   0.03113707
5621.00   2.31378841   0.03079704
5622.00   2.27130866   0.03053569
5623.00   2.36249328   0.03078020
5624.00   2.38865304   0.03069555
5625.00   2.27493906   0.03016396
5626.00   2.25487924   0.03022140
5627.00   2.42281771   0.03193561
5628.00   2.50963235   0.03133991
5629.00   2.32132053   0.03210678
5630.00   2.19022703   0.03191709
5631.00   2.31157827   0.03297344
5632.00   2.22831035   0.03137929
5633.00   2.27349734   0.03001058
5634.00   2.20375633   0.03185369
5635.00   2.16240549   0.03178662
5636.00   2.20889521   0.02940542
5637.00   2.19913507   0.02873405
5638.00   2.21493745   0.02980588
5639.00   2.26569152   0.03254634
5640.00   2.26457214   0.02925457
5641.00   2.20656872   0.02892241
5642.00   2.20650339   0.02874091
5643.00   2.23691320   0.02878812
5644.00   2.20975018   0.02862670
5645.00   2.19851041   0.02847645
5646.00   2.16694307   0.02839177
5647.00   2.18003726   0.02854066
5648.00   2.15766191   0.02884837
5649.00   2.16378951   0.02856766
5650.00   2.24038768   0.02836181
5651.00   2.22559881   0.02853919
5652.00   2.22694516   0.02877856
5653.00   2.21737504   0.03009014
5654.00   2.23158717   0.03032164
5655.00   2.24693131   0.03082507
5656.00   2.29734826   0.03442613
5657.00   2.23210406   0.03453063
5658.00   1.93202698   0.03639006
5659.00   2.03172541   0.04210019
5660.00   2.19323659   0.03651728
5661.00   2.23866367   0.03120458
5662.00   2.28543925   0.02992693
5663.00   2.23090816   0.02796111
5664.00   2.17414165   0.02751653
5665.00   2.14619231   0.02788085
5666.00   2.15160894   0.02769686
5667.00   2.14244199   0.02825198
5668.00   2.01807189   0.02938582
5669.00   2.10748363   0.02818909
5670.00   2.18752265   0.02791159
5671.00   2.23119807   0.02833121
5672.00   2.29721642   0.02864906
5673.00   2.14060974   0.02818649
5674.00   2.09830046   0.03142718
5675.00   2.18094039   0.02947921
5676.00   2.19495368   0.02763078
5677.00   2.16230035   0.02764889
5678.00   2.14002609   0.02875730
5679.00   2.20880961   0.02796324
5680.00   2.18809581   0.02929216
5681.00   2.12666726   0.02944736
5682.00   2.10381532   0.02970459
5683.00   2.05150723   0.03126920
5684.00   2.04226947   0.03003092
5685.00   2.02847910   0.02921000
5686.00   2.22005057   0.02979495
5687.00   2.12831187   0.02980612
5688.00   2.03308415   0.02980898
5689.00   2.18203354   0.03035873
5690.00   2.18159199   0.03021597
5691.00   2.16267109   0.02976361
5692.00   2.24262333   0.03121124
5693.00   2.25942254   0.03103605
5694.00   2.14402795   0.02763416
5695.00   2.22683787   0.02770941
5696.00   2.22422695   0.02815692
5697.00   2.21836019   0.02777562
5698.00   2.26950336   0.02967377
5699.00   2.19977641   0.02678563
5700.00   2.22602749   0.02669558
5701.00   2.23776269   0.02677407
5702.00   2.24693418   0.02654095
5703.00   2.27418494   0.02630423
5704.00   2.25621343   0.02595099
5705.00   2.16034412   0.02542741
5706.00   2.26969290   0.02548049
5707.00   2.33902264   0.02587173
5708.00   2.34880328   0.02643590
5709.00   2.31611514   0.02589172
5710.00   2.28039098   0.02626501
5711.00   2.28905082   0.02641556
5712.00   2.29384780   0.02585900
5713.00   2.29434943   0.02592265
5714.00   2.27061009   0.02544778
5715.00   2.27354503   0.02539966
5716.00   2.29936099   0.02549712
5717.00   2.25723839   0.02522961
5718.00   2.21805763   0.02494747
5719.00   2.31724262   0.02515679
5720.00   2.32318997   0.02513812
5721.00   2.26512575   0.02475783
5722.00   2.21590495   0.02434122
5723.00   2.26348853   0.02525272
5724.00   2.16843176   0.02514523
5725.00   2.17791104   0.02437250
5726.00   2.25321221   0.02459657
5727.00   2.24503160   0.02443577
5728.00   2.21563029   0.02421268
5729.00   2.24806118   0.02422835
5730.00   2.30239749   0.02434660
5731.00   2.28619838   0.02403373
5732.00   2.20487642   0.02478980
5733.00   2.19339204   0.02483273
5734.00   2.19823098   0.02395922
5735.00   2.17408943   0.02393250
5736.00   2.26558614   0.02400668
5737.00   2.30041552   0.02407427
5738.00   2.19472742   0.02374128
5739.00   2.21849656   0.02377459
5740.00   2.25582170   0.02375689
5741.00   2.24265695   0.02416531
5742.00   2.19551229   0.02412390
5743.00   2.22656274   0.02527398
5744.00   2.30292559   0.02534524
5745.00   2.29356384   0.02362822
5746.00   2.24713492   0.02512036
5747.00   2.22748852   0.02430584
5748.00   2.32286406   0.02349987
5749.00   2.33812118   0.02368790
5750.00   2.35912752   0.02373547
5751.00   2.29846525   0.02379960
5752.00   2.27830291   0.02453962
5753.00   2.29956341   0.02439080
5754.00   2.19137716   0.02336738
5755.00   2.13865948   0.02363973
5756.00   2.20850229   0.02361241
5757.00   2.23455501   0.02326303
5758.00   2.25782037   0.02335645
5759.00   2.26559806   0.02342883
5760.00   2.20071411   0.02331890
5761.00   2.24222922   0.02335939
5762.00   2.16986036   0.02305209
5763.00   2.16568112   0.02423247
5764.00   2.21532750   0.02535897
5765.00   2.19467854   0.02344834
5766.00   2.20177269   0.02413595
5767.00   2.19088912   0.02515746
5768.00   2.22432065   0.02483666
5769.00   2.21217608   0.02522880
5770.00   2.22858524   0.02573711
5771.00   2.27069330   0.02603720
5772.00   2.25567794   0.02593925
5773.00   2.22954249   0.02719552
5774.00   2.20657516   0.02500048
5775.00   2.14248323   0.02540453
5776.00   2.15749717   0.02318644
5777.00   2.24282146   0.02307220
5778.00   2.28038621   0.02311689
5779.00   2.23071718   0.02309110
5780.00   2.21968961   0.02307542
5781.00   2.22168064   0.02294431
5782.00   2.23782468   0.02298005
5783.00   2.26805520   0.02308086
5784.00   2.23150778   0.02294500
5785.00   2.23584461   0.02292178
5786.00   2.23472142   0.02315858
5787.00   2.27784538   0.02343823
5788.00   2.28497481   0.02373417
5789.00   2.24522495   0.02428205
5790.00   2.30969977   0.02486784
5791.00   2.32215357   0.02525097
5792.00   2.36009502   0.02565837
5793.00   2.26863074   0.02521215
5794.00   2.22738647   0.02438917
5795.00   2.26090145   0.02400664
5796.00   2.30412650   0.02342540
5797.00   2.25139999   0.02320967
5798.00   2.34942102   0.02338530
5799.00   2.32194400   0.02326536
5800.00   2.27719545   0.02318186
5801.00   2.22385693   0.02316506
5802.00   2.25465560   0.02327334
5803.00   2.26881027   0.02327351
5804.00   2.24187613   0.02313923
5805.00   2.22658730   0.02317131
5806.00   2.18517566   0.02349541
5807.00   2.35500216   0.02426881
5808.00   2.24236631   0.02307645
5809.00   2.25418162   0.02305972
5810.00   2.29760885   0.02309027
5811.00   2.21548128   0.02305807
5812.00   2.27717566   0.02488969
5813.00   2.30709577   0.02452501
5814.00   2.21622753   0.02294850
5815.00   2.22130036   0.02311790
5816.00   2.29912567   0.02329308
5817.00   2.32810879   0.02324706
5818.00   2.30469131   0.02316367
5819.00   2.31845021   0.02343281
5820.00   2.23438478   0.02348652
5821.00   2.19531560   0.02311634
5822.00   2.25697613   0.02327318
5823.00   2.33318782   0.02347479
5824.00   2.34002781   0.02374774
5825.00   2.27387810   0.02354081
5826.00   2.24864197   0.02329807
5827.00   2.25388432   0.02331629
5828.00   2.28940725   0.02334316
5829.00   2.33491015   0.02350671
5830.00   2.26527381   0.02336286
5831.00   2.29537606   0.02342298
5832.00   2.24978709   0.02334071
5833.00   2.24515820   0.02334148
5834.00   2.30182886   0.02340660
5835.00   2.27591300   0.02335914
5836.00   2.26185036   0.02361316
5837.00   2.24111247   0.02350483
5838.00   2.22110605   0.02327576
5839.00   2.26398563   0.02339324
5840.00   2.22648287   0.02326039
5841.00   2.24150085   0.02457087
5842.00   2.28734303   0.02555545
5843.00   2.15512562   0.02333866
5844.00   2.22342443   0.02366153
5845.00   2.28676248   0.02344735
5846.00   2.23531651   0.02335684
5847.00   2.21521258   0.02322218
5848.00   2.23123360   0.02330218
5849.00   2.25995660   0.02341850
5850.00   2.21848845   0.02317017
5851.00   2.20359755   0.02327259
5852.00   2.23719978   0.02349072
5853.00   2.18740869   0.02324066
5854.00   2.21967125   0.02333050
5855.00   2.29110265   0.02349562
5856.00   2.21380663   0.02327588
5857.00   2.21909809   0.02339217
5858.00   2.26482892   0.02495034
5859.00   2.26100874   0.02435547
5860.00   2.23693919   0.02300295
5861.00   2.16115284   0.02499112
5862.00   2.09605360   0.02615789
5863.00   2.18325162   0.02362301
5864.00   2.19732666   0.02351807
5865.00   2.26267457   0.02429209
5866.00   2.21183920   0.02345551
5867.00   2.16704583   0.02348852
5868.00   2.20608902   0.02346832
5869.00   2.18799734   0.02384130
5870.00   2.16809297   0.02611234
5871.00   2.18958330   0.02525006
5872.00   2.16800928   0.02307131
5873.00   2.16187620   0.02326293
5874.00   2.22248435   0.02339196
5875.00   2.20518899   0.02333468
5876.00   2.21303535   0.02330364
5877.00   2.18831778   0.02312830
5878.00   2.13642454   0.02282125
5879.00   2.06666970   0.02266089
5880.00   2.15450954   0.02276955
5881.00   2.20377421   0.02269624
5882.00   2.13661361   0.02268069
5883.00   2.12404513   0.02341338
5884.00   2.12444162   0.02296012
5885.00   2.17660952   0.02253200
5886.00   2.16789937   0.02269576
5887.00   2.13221073   0.02326106
5888.00   2.18079519   0.02522283
5889.00   2.16595531   0.02916801
5890.00   2.10599303   0.03770116
5891.00   2.10754657   0.04131194
5892.00   1.95888865   0.03630739
5893.00   2.00053716   0.03214852
5894.00   2.07041287   0.02730050
5895.00   2.07990885   0.02895167
5896.00   2.11503625   0.03490912
5897.00   2.18949151   0.03736049
5898.00   2.08455062   0.03730816
5899.00   2.00143838   0.03393374
5900.00   2.13266373   0.02503743
5901.00   2.14778852   0.02225685
5902.00   2.12578821   0.02224425
5903.00   2.10689688   0.02225120
5904.00   2.11683989   0.02240798
5905.00   2.19578457   0.02267249
5906.00   2.21065092   0.02273109
5907.00   2.17133975   0.02266230
5908.00   2.13707614   0.02255599
5909.00   2.10405111   0.02242279
5910.00   2.09559274   0.02229599
5911.00   2.17118669   0.02244939
5912.00   2.15003705   0.02256307
5913.00   2.18367243   0.02254720
5914.00   2.16334105   0.02251953
5915.00   2.22554874   0.02466658
5916.00   2.27514315   0.02561951
5917.00   2.21467090   0.02310519
5918.00   2.09638882   0.02229409
5919.00   2.10581136   0.02211472
5920.00   2.14673376   0.02232819
5921.00   2.07170820   0.02267545
5922.00   2.10161018   0.02233415
5923.00   2.14338541   0.02226630
5924.00   2.12645364   0.02216614
5925.00   2.14808965   0.02267389
5926.00   2.12492847   0.02296524
5927.00   2.11921239   0.02243101
5928.00   2.15977502   0.02263482
5929.00   2.20322204   0.02266173
5930.00   2.14372182   0.02249522
5931.00   2.20917010   0.02269332
5932.00   2.25650096   0.02276634
5933.00   2.20406532   0.02272611
5934.00   2.15705252   0.02273825
5935.00   2.24471712   0.02275717
5936.00   2.24325156   0.02270276
5937.00   2.18654871   0.02261568
5938.00   2.13660479   0.02234666
5939.00   2.17687154   0.02296739
5940.00   2.22065115   0.02313608
5941.00   2.20034599   0.02214021
5942.00   2.16134906   0.02194366
5943.00   2.08606339   0.02190038
5944.00   2.13032150   0.02181662
5945.00   2.13738132   0.02188753
5946.00   2.11703134   0.02213756
5947.00   2.12973571   0.02179130
5948.00   2.18578839   0.02176209
5949.00   2.18707418   0.02207777
5950.00   2.19962192   0.02246325
5951.00   2.21526885   0.02181044
5952.00   2.20875335   0.02191216
5953.00   2.20275187   0.02206975
5954.00   2.26974416   0.02243771
5955.00   2.30041790   0.02304816
5956.00   2.23093677   0.02255915
5957.00   2.20830870   0.02197928
5958.00   2.21762133   0.02182556
5959.00   2.20375776   0.02165164
5960.00   2.19663095   0.02167615
5961.00   2.25700974   0.02187373
5962.00   2.32167912   0.02203804
5963.00   2.30550528   0.02206918
5964.00   2.30755234   0.02206359
5965.00   2.25609350   0.02196209
5966.00   2.28704834   0.02271610
5967.00   2.30772853   0.02236555
5968.00   2.20348692   0.02137587
5969.00   2.15801907   0.02139412
5970.00   2.21591926   0.02157141
5971.00   2.18384576   0.02153307
5972.00   2.20627379   0.02146509
5973.00   2.28472948   0.02280792
5974.00   2.29236746   0.02457509
5975.00   2.23934579   0.02167426
5976.00   2.23394823   0.02162747
5977.00   2.21039772   0.02154060
5978.00   2.17568493   0.02137146
5979.00   2.23589182   0.02145356
5980.00   2.17870355   0.02132150
5981.00   2.15352225   0.02124173
5982.00   2.20293617   0.02140141
5983.00   2.24529243   0.02153775
5984.00   2.25203419   0.02133511
5985.00   2.20820022   0.02131753
5986.00   2.30489373   0.02139707
5987.00   2.26284051   0.02127112
5988.00   2.25022340   0.02139783
5989.00   2.27491450   0.02152723
5990.00   2.30085635   0.02145774
5991.00   2.31205964   0.02139585
5992.00   2.31285095   0.02143455
5993.00   2.24698687   0.02146922
5994.00   2.21663380   0.02152324
5995.00   2.31397629   0.02372040
5996.00   2.22340846   0.02169782
5997.00   2.27763438   0.02123766
5998.00   2.27613926   0.02125324
5999.00   2.29750061   0.02122800
6000.00   2.25016260   0.02233729
6001.00   2.23638058   0.02316747
6002.00   2.26358056   0.02118005
6003.00   2.27345681   0.02114965
6004.00   2.28221035   0.02122313
6005.00   2.27745986   0.02114701
6006.00   2.18792534   0.02095198
6007.00   2.21738982   0.02100153
6008.00   2.25618124   0.02104814
6009.00   2.29588032   0.02251135
6010.00   2.21898937   0.02413268
6011.00   2.28708506   0.02378096
6012.00   2.28773880   0.02106948
6013.00   2.26037860   0.02218342
6014.00   2.22962832   0.02278333
6015.00   2.29726744   0.02109011
6016.00   2.34046459   0.02099650
6017.00   2.26327825   0.02087417
6018.00   2.15743256   0.02060041
6019.00   2.28854823   0.02095816
6020.00   2.30767870   0.02089841
6021.00   2.19667649   0.02069112
6022.00   2.26358390   0.02083455
6023.00   2.19626451   0.02061785
6024.00   2.19382811   0.02060946
6025.00   2.19513822   0.02069442
6026.00   2.25540161   0.02073611
6027.00   2.27391481   0.02079764
6028.00   2.24524784   0.02079143
6029.00   2.17977309   0.02058218
6030.00   2.25617385   0.02067196
6031.00   2.22822475   0.02082991
6032.00   2.16686559   0.02054531
6033.00   2.21936774   0.02085531
6034.00   2.16276217   0.02338417
6035.00   2.21510816   0.02138228
6036.00   2.29157615   0.02062988
6037.00   2.28173780   0.02077498
6038.00   2.26306725   0.02061666
6039.00   2.27972913   0.02064246
6040.00   2.25183177   0.02058273
6041.00   2.18279672   0.02039560
6042.00   2.24087667   0.02021378
6043.00   2.16270852   0.02252774
6044.00   2.20312786   0.02217334
6045.00   2.26624060   0.02050966
6046.00   2.13362622   0.02019939
6047.00   2.17537332   0.02037910
6048.00   2.22214651   0.02041681
6049.00   2.19187427   0.02026566
6050.00   2.16965890   0.02025744
6051.00   2.23270893   0.02041436
6052.00   2.23151851   0.02038985
6053.00   2.21823168   0.02014020
6054.00   2.21351504   0.02145714
6055.00   2.24707413   0.02132606
6056.00   2.18554926   0.02136944
6057.00   2.17379045   0.02106098
6058.00   2.17235970   0.02000999
6059.00   2.16773987   0.02020640
6060.00   2.20328593   0.02014917
6061.00   2.20957875   0.02030175
6062.00   2.23267722   0.02064078
6063.00   2.22117925   0.02033092
6064.00   2.17587280   0.02006965
6065.00   2.17439318   0.02007055
6066.00   2.18421292   0.02006528
6067.00   2.17032075   0.01999940
6068.00   2.10768676   0.02000602
6069.00   2.11830044   0.02011037
6070.00   2.18412805   0.02011611
6071.00   2.19008160   0.02009056
6072.00   2.17561960   0.01998295
6073.00   2.16826034   0.01994293
6074.00   2.04841757   0.01985866
6075.00   2.12244129   0.02017505
6076.00   2.25036192   0.02452327
6077.00   2.26208925   0.02736966
6078.00   2.21138048   0.02160085
6079.00   2.17044592   0.02010533
6080.00   2.21499753   0.02006957
6081.00   2.20392966   0.02097119
6082.00   2.14118576   0.02075535
6083.00   2.15478683   0.01972303
6084.00   2.18004560   0.01985642
6085.00   2.12441516   0.01974970
6086.00   2.12961435   0.01979352
6087.00   2.15132833   0.01975618
6088.00   2.16050410   0.01978008
6089.00   2.14462543   0.01988740
6090.00   2.13293386   0.02012031
6091.00   2.17299318   0.01970253
6092.00   2.12715483   0.02087269
6093.00   2.15738845   0.02225576
6094.00   2.18431211   0.01968751
6095.00   2.09631586   0.02056494
6096.00   2.09395838   0.02110303
6097.00   2.15646625   0.02009810
6098.00   2.14088750   0.01977595
6099.00   2.12453842   0.01974063
6100.00   2.11869574   0.01987940
6101.00   2.08631706   0.02025541
6102.00   2.14223742   0.01994819
6103.00   2.06121016   0.01959440
6104.00   2.06123066   0.01964664
6105.00   2.15986466   0.01990914
6106.00   2.13074875   0.01994309
6107.00   2.03920913   0.01985931
6108.00   2.04279280   0.01994438
6109.00   2.12445331   0.02021990
6110.00   2.09696627   0.02039674
6111.00   2.07905793   0.02048007
6112.00   2.09990048   0.02061323
6113.00   2.07469463   0.02079246
6114.00   2.08966899   0.02095693
6115.00   2.09062791   0.02093839
6116.00   2.03368902   0.02068620
6117.00   2.11300802   0.02069274
6118.00   2.10697031   0.02046023
6119.00   2.07178140   0.02033747
6120.00   2.05532765   0.02023411
6121.00   2.08650470   0.01990762
6122.00   2.07443190   0.01979020
6123.00   2.05056810   0.01968247
6124.00   2.05974698   0.01978837
6125.00   2.05486488   0.01962171
6126.00   2.05920935   0.01952722
6127.00   2.05659509   0.01956543
6128.00   2.00270987   0.02194069
6129.00   2.09050465   0.02025166
6130.00   2.11797690   0.01936807
6131.00   2.07924962   0.01946547
6132.00   2.04834628   0.01938841
6133.00   2.06896472   0.01942633
6134.00   2.08664680   0.01943673
6135.00   2.10333037   0.01922968
6136.00   2.09887099   0.02133616
6137.00   2.02050185   0.02070694
6138.00   2.00360680   0.01888136
6139.00   2.05509973   0.01919259
6140.00   2.03066707   0.01919979
6141.00   2.03299260   0.01923597
6142.00   2.04966259   0.01932210
6143.00   2.04644036   0.01939855
6144.00   2.01713800   0.01927011
6145.00   2.08905578   0.01945237
6146.00   2.12651801   0.01957116
6147.00   2.07300186   0.01936623
6148.00   2.05762076   0.01931074
6149.00   2.05727530   0.01919206
6150.00   2.07923555   0.01914925
6151.00   2.06641412   0.01914352
6152.00   2.04849291   0.01904153
6153.00   2.04053903   0.01960481
6154.00   2.03996348   0.02157130
6155.00   2.02577353   0.02075583
6156.00   1.98364258   0.01923106
6157.00   2.01968336   0.01950769
6158.00   2.06879473   0.01936987
6159.00   2.04870319   0.01911774
6160.00   2.03105021   0.01922382
6161.00   2.05674887   0.01963000
6162.00   2.09075713   0.01979588
6163.00   2.09367895   0.01973362
6164.00   2.02829933   0.01935918
6165.00   1.97429824   0.01892283
6166.00   1.99909341   0.01890841
6167.00   2.01040268   0.01886874
6168.00   1.99670017   0.01864388
6169.00   1.98849308   0.01861727
6170.00   2.04342628   0.01877642
6171.00   2.04600120   0.01875672
6172.00   2.06848049   0.01910239
6173.00   2.03522944   0.01977772
6174.00   1.98875642   0.01880274
6175.00   2.09817910   0.01945739
6176.00   2.11196804   0.02050785
6177.00   2.06135702   0.01874679
6178.00   2.03595686   0.01868602
6179.00   2.00752831   0.01862673
6180.00   2.04315472   0.01988867
6181.00   2.01768494   0.02134892
6182.00   2.01666927   0.01984009
6183.00   2.04743028   0.01869506
6184.00   2.02168727   0.01875809
6185.00   1.99778855   0.01861795
6186.00   2.01726961   0.01869333
6187.00   2.03235054   0.01873201
6188.00   2.01680326   0.01864324
6189.00   2.02304363   0.01861394
6190.00   2.04367614   0.01867135
6191.00   2.05949163   0.01863974
6192.00   2.07636595   0.01856357
6193.00   2.10536599   0.01870687
6194.00   2.08806801   0.01872483
6195.00   2.03502536   0.01863151
6196.00   2.02494740   0.01864888
6197.00   2.01685405   0.01859291
6198.00   1.98730469   0.01866696
6199.00   2.05484700   0.01870855
6200.00   2.04734182   0.01860365
6201.00   1.98693311   0.01862561
6202.00   2.03999639   0.01953719
6203.00   2.05631709   0.01951493
6204.00   2.03327513   0.01877679
6205.00   2.02503085   0.01858805
6206.00   2.01783586   0.01849169
6207.00   2.03801680   0.01882694
6208.00   2.01503325   0.02059931
6209.00   1.88779223   0.01974999
6210.00   1.88071227   0.01832234
6211.00   1.98840523   0.01873654
6212.00   2.02541351   0.02010958
6213.00   2.06179047   0.02320098
6214.00   2.03994751   0.02021233
6215.00   1.99349439   0.01796100
6216.00   1.98637176   0.01823872
6217.00   2.01347423   0.01849789
6218.00   1.92902565   0.01991650
6219.00   1.93597007   0.01986356
6220.00   2.03271818   0.01833824
6221.00   1.96830237   0.01814565
6222.00   1.93753254   0.01816028
6223.00   1.93834150   0.01819170
6224.00   1.92963803   0.01821262
6225.00   1.96299314   0.01817914
6226.00   1.98111057   0.01810066
6227.00   1.99716437   0.01814877
6228.00   1.96827161   0.01810843
6229.00   1.98738682   0.01807708
6230.00   2.00305414   0.01805163
6231.00   1.98847139   0.01799451
6232.00   1.98787224   0.01793340
6233.00   1.99488270   0.01796706
6234.00   1.92808056   0.01798882
6235.00   1.93722391   0.01821735
6236.00   1.99550700   0.01857435
6237.00   2.00338626   0.01864953
6238.00   1.98805094   0.01849718
6239.00   2.01591516   0.01851248
6240.00   1.98568332   0.01844523
6241.00   1.95514071   0.01855368
6242.00   1.94902337   0.01841602
6243.00   1.99601448   0.01833144
6244.00   1.99715042   0.01880362
6245.00   1.93113446   0.01796230
6246.00   1.90607297   0.01793678
6247.00   1.93485558   0.01850806
6248.00   1.93697941   0.01771579
6249.00   1.96228051   0.01773870
6250.00   1.95978034   0.01819980
6251.00   1.93381095   0.01849995
6252.00   1.98178327   0.01816640
6253.00   1.94807041   0.01792294
6254.00   1.99432623   0.01810293
%6255.00   1.74283397   0.01846780
%6256.00   0.40045670   0.00725752
%6257.00   -0.05025074   nan
%6258.00   0.00606452   nan
%6259.00   -0.00020891   0.00009214
%6260.00   0.00095613   0.00007909
%6261.00   0.00003251   0.00010784
%6262.00   -0.07587057   nan
%6263.00   0.53559476   0.00929643
%6264.00   1.63019812   0.01937874
6265.00   1.84506917   0.02013906
6266.00   1.85030532   0.01761547
6267.00   1.85827863   0.01780074
6268.00   1.92758465   0.01789065
6269.00   1.88531411   0.01850362
6270.00   1.88133442   0.01807971
6271.00   1.87273550   0.01752431
6272.00   1.91454124   0.01761970
6273.00   1.86865199   0.01749156
6274.00   1.83325756   0.01743978
6275.00   1.86550295   0.01754687
6276.00   1.85678077   0.01743224
6277.00   1.82658148   0.01722470
6278.00   1.76777315   0.01713253
6279.00   1.80257261   0.01753879
6280.00   1.87913954   0.01798694
6281.00   1.83935606   0.01787234
6282.00   1.85894537   0.01767755
6283.00   1.83158326   0.01741250
6284.00   1.83768976   0.01750917
6285.00   1.88567936   0.01774524
6286.00   1.82444394   0.01714064
6287.00   1.79145205   0.01824425
6288.00   1.77086294   0.02748022
%6289.00   2.04550076   0.03350607
%6290.00   2.37035942   0.02776806
%6291.00   1.92722273   0.01823878
6292.00   1.85065544   0.01716449
6293.00   1.83089542   0.01732206
6294.00   1.80687666   0.01726916
6295.00   1.82173944   0.01740234
6296.00   1.85024941   0.01752463
6297.00   1.84528983   0.01751622
6298.00   1.80262280   0.01761823
6299.00   1.73350930   0.01855006
6300.00   1.76745152   0.02239678
6301.00   1.73127186   0.02566944
6302.00   1.73287380   0.02549153
6303.00   1.79215658   0.02323427
6304.00   1.76258302   0.01906803
6305.00   1.74922991   0.01734619
6306.00   1.75438249   0.01761706
6307.00   1.76950312   0.01808354
6308.00   1.76843750   0.01819302
6309.00   1.78126216   0.01794901
6310.00   1.78079832   0.01752550
6311.00   1.79373384   0.01728451
6312.00   1.77677083   0.01720871
6313.00   1.79755199   0.01734541
6314.00   1.82841432   0.01727596
6315.00   1.78605402   0.01726754
6316.00   1.77353621   0.01714678
6317.00   1.79797041   0.01702134
6318.00   1.74627197   0.01687321
6319.00   1.70831931   0.01712807
6320.00   1.70535409   0.01683266
6321.00   1.74798274   0.01709827
6322.00   1.76591957   0.01774565
6323.00   1.75242734   0.01743649
6324.00   1.76797605   0.01695840
6325.00   1.76207662   0.01696276
6326.00   1.71442008   0.01688396
6327.00   1.66355026   0.01677653
6328.00   1.70733023   0.01715643
6329.00   1.68033540   0.01712145
6330.00   1.70910931   0.01713194
6331.00   1.68844223   0.01726490
6332.00   1.72944140   0.01739003
6333.00   1.76606774   0.01705027
6334.00   1.73565543   0.01769285
6335.00   1.73881149   0.01899265
6336.00   1.75046289   0.01743446
6337.00   1.75098240   0.01685507
6338.00   1.75990486   0.01725988
6339.00   1.70528066   0.01679116
6340.00   1.64560544   0.01665313
6341.00   1.69546545   0.01686675
6342.00   1.70470464   0.01692884
6343.00   1.69519961   0.01688244
6344.00   1.70182681   0.01705640
6345.00   1.69963360   0.01710105
6346.00   1.68327761   0.01683692
6347.00   1.67896962   0.01683738
6348.00   1.68107748   0.01682398
6349.00   1.66721392   0.01685150
6350.00   1.70456612   0.01705387
6351.00   1.69223368   0.01707613
6352.00   1.66573393   0.01685358
6353.00   1.70605063   0.01693907
6354.00   1.69637251   0.01751520
6355.00   1.72953439   0.01801317
6356.00   1.70163810   0.01699482
6357.00   1.69432306   0.01712027
6358.00   1.71089959   0.01717673
6359.00   1.71457541   0.01711152
6360.00   1.68572307   0.01682259
6361.00   1.71410584   0.01671597
6362.00   1.74563503   0.01703111
6363.00   1.62043273   0.01879898
6364.00   1.66934633   0.01943135
6365.00   1.63717544   0.01962343
6366.00   1.65719545   0.01939614
6367.00   1.67222583   0.01812847
6368.00   1.68458903   0.01702509
6369.00   1.68277454   0.01680162
6370.00   1.68276715   0.01699948
6371.00   1.71420979   0.01713644
6372.00   1.69812000   0.01687545
6373.00   1.69564307   0.01685289
6374.00   1.68546355   0.01774293
6375.00   1.64494061   0.01738458
6376.00   1.65585911   0.01680529
6377.00   1.67492425   0.01695366
6378.00   1.66859913   0.01704719
6379.00   1.63409150   0.01696237
6380.00   1.68826294   0.01710941
6381.00   1.68285656   0.01712462
6382.00   1.67237651   0.01701883
6383.00   1.67109215   0.01701713
6384.00   1.71531200   0.01714970
6385.00   1.72186172   0.01714910
6386.00   1.73441541   0.01748321
6387.00   1.77157807   0.01767106
6388.00   1.76645577   0.01734106
6389.00   1.69347394   0.01719368
6390.00   1.67640567   0.01707518
6391.00   1.70737350   0.01713517
6392.00   1.76510096   0.01726325
6393.00   1.76104403   0.01714117
6394.00   1.72731066   0.01704896
6395.00   1.74428344   0.01707299
6396.00   1.74828279   0.01712089
6397.00   1.76558316   0.01730263
6398.00   1.75149083   0.01730599
6399.00   1.79599488   0.01744751
6400.00   1.76260269   0.01736922
6401.00   1.72064042   0.01708522
6402.00   1.76689494   0.01741354
6403.00   1.78566968   0.01761109
6404.00   1.76402450   0.01765455
6405.00   1.75396490   0.01756243
6406.00   1.78232443   0.01749561
6407.00   1.77161574   0.01773549
6408.00   1.78625059   0.01757072
6409.00   1.73756146   0.01723521
6410.00   1.75517607   0.01729156
6411.00   1.81849444   0.01753131
6412.00   1.89420998   0.01807380
6413.00   1.82216477   0.01757848
6414.00   1.82762861   0.01762890
6415.00   1.82798839   0.01773388
6416.00   1.82994354   0.01767047
6417.00   1.81295180   0.01756753
6418.00   1.81039500   0.01751805
6419.00   1.78381729   0.01749141
6420.00   1.83671904   0.01755773
6421.00   1.86862791   0.01761215
6422.00   1.84696937   0.01762799
6423.00   1.75737703   0.01742194
6424.00   1.85674751   0.02014649
6425.00   1.81748688   0.02032655
6426.00   1.87793779   0.02060006
6427.00   1.86119521   0.01847149
6428.00   1.83252656   0.01753888
6429.00   1.82928407   0.01776460
6430.00   1.85725057   0.01791568
6431.00   1.83847797   0.01789812
6432.00   1.80678570   0.01753661
6433.00   1.82310903   0.01793394
6434.00   1.81204188   0.01805541
6435.00   1.84339797   0.01769354
6436.00   1.81456602   0.01768662
6437.00   1.85648203   0.01783670
6438.00   1.89064074   0.01794832
6439.00   1.84243345   0.01820217
6440.00   1.85029507   0.01810232
6441.00   1.87930679   0.01779614
6442.00   1.88043439   0.01789766
6443.00   1.90684652   0.01811519
6444.00   1.85773730   0.01769842
6445.00   1.80338204   0.01866735
6446.00   1.84862006   0.02031548
6447.00   1.81846523   0.01796606
6448.00   1.83984959   0.01789409
6449.00   1.79059970   0.01772045
6450.00   1.87766874   0.01779793
6451.00   1.91280317   0.01783614
6452.00   1.89059651   0.01787157
6453.00   1.84062684   0.01781122
6454.00   1.83688593   0.01785618
6455.00   1.82241869   0.01778735
6456.00   1.82682216   0.01778233
6457.00   1.86607325   0.01784228
6458.00   1.83906925   0.01787372
6459.00   1.82464945   0.01792612
6460.00   1.83108449   0.01845278
6461.00   1.78634214   0.01774086
6462.00   1.76101768   0.01759469
6463.00   1.79946399   0.01757910
6464.00   1.81233239   0.01760979
6465.00   1.80253994   0.01769958
6466.00   1.78017437   0.01783135
6467.00   1.78735173   0.01781411
6468.00   1.78399992   0.01946544
6469.00   1.82483673   0.01897332
6470.00   1.84515250   0.01773089
6471.00   1.80869651   0.01775408
6472.00   1.79158151   0.01780366
6473.00   1.80599856   0.01779004
6474.00   1.77388823   0.01758022
6475.00   1.76532388   0.01755954
6476.00   1.75582635   0.01737311
6477.00   1.72618735   0.01714353
6478.00   1.74259460   0.01729506
6479.00   1.82679284   0.01764097
6480.00   1.81500852   0.01765429
6481.00   1.72214198   0.01747210
6482.00   1.77387583   0.01754842
6483.00   1.82986164   0.01759538
6484.00   1.82923055   0.01752928
6485.00   1.75977039   0.01740202
6486.00   1.71244621   0.01728678
6487.00   1.75627136   0.01744416
6488.00   1.81038547   0.01766674
6489.00   1.84608340   0.01780085
6490.00   1.81341255   0.01782230
6491.00   1.80789709   0.01774765
6492.00   1.82662392   0.01769721
6493.00   1.80452132   0.01754281
6494.00   1.81786847   0.01776597
6495.00   1.83066463   0.01805603
6496.00   1.84185696   0.01732798
6497.00   1.77324295   0.01843309
6498.00   1.72908127   0.01920005
6499.00   1.76749647   0.01793758
6500.00   1.75774622   0.01948810
6501.00   1.81835520   0.01948575
6502.00   1.86425936   0.01807542
6503.00   1.83180320   0.01795875
6504.00   1.82883406   0.01793865
6505.00   1.83546913   0.01813377
6506.00   1.77190185   0.01806146
6507.00   1.85532308   0.01829169
6508.00   1.85728240   0.01827187
6509.00   1.80533004   0.01821367
6510.00   1.78219438   0.01857678
6511.00   1.77024853   0.01840756
6512.00   1.78338397   0.01806724
6513.00   1.76593232   0.01784538
6514.00   1.75834417   0.01779717
6515.00   1.78578913   0.01773632
6516.00   1.72453427   0.01738331
6517.00   1.69725072   0.01736758
6518.00   1.69348502   0.01715563
6519.00   1.69667625   0.01705284
6520.00   1.75888908   0.01737193
6521.00   1.73149002   0.01787172
6522.00   1.72920895   0.02073393
6523.00   1.71547842   0.02063922
6524.00   1.75183678   0.01817000
6525.00   1.82623100   0.01782533
6526.00   1.79844403   0.01792559
6527.00   1.72948694   0.01774672
6528.00   1.71026504   0.01773402
6529.00   1.74807823   0.01786734
6530.00   1.79064643   0.01785849
6531.00   1.81396389   0.01905051
6532.00   1.78292859   0.01896100
6533.00   1.80695724   0.01963590
6534.00   1.81566346   0.01961325
6535.00   1.72790110   0.01774653
6536.00   1.73370993   0.01790985
6537.00   1.71504807   0.01776510
6538.00   1.65799379   0.01750465
6539.00   1.67628646   0.01826088
6540.00   1.66601610   0.02073106
6541.00   1.57963181   0.02186947
6542.00   1.79052150   0.02089122
6543.00   1.72244906   0.01815256
6544.00   1.72369444   0.01870391
6545.00   1.70302725   0.01760378
6546.00   1.64056647   0.01756314
6547.00   1.63613331   0.01897967
6548.00   1.64878213   0.01903526
6549.00   1.69538617   0.01734020
6550.00   1.69193220   0.01743510
6551.00   1.65630412   0.01742093
6552.00   1.71214688   0.01758017
6553.00   1.71738970   0.01771154
6554.00   1.64576614   0.01757395
6555.00   1.70898235   0.01829875
6556.00   1.75584710   0.02101610
6557.00   1.66946244   0.01787970
6558.00   1.66473794   0.01714089
6559.00   1.67184651   0.01723825
6560.00   1.63845706   0.01723355
6561.00   1.66092527   0.01723377
6562.00   1.68795860   0.01699771
6563.00   1.64306080   0.01667912
6564.00   1.65956128   0.01653093
6565.00   1.67192936   0.01665322
6566.00   1.62167513   0.01666577
6567.00   1.63227189   0.01702712
6568.00   1.69904256   0.01734581
6569.00   1.65280509   0.01725911
6570.00   1.64557958   0.01729174
6571.00   1.70256948   0.01732505
6572.00   1.71066678   0.01778988
6573.00   1.69508517   0.01836906
6574.00   1.67126167   0.01755559
6575.00   1.66172028   0.01720067
6576.00   1.59681177   0.01719058
6577.00   1.58610964   0.01740037
6578.00   1.64624870   0.01779700
6579.00   1.65784836   0.01790704
6580.00   1.63351941   0.01777609
6581.00   1.66281462   0.01768820
6582.00   1.68199575   0.01759509
6583.00   1.68588114   0.01753483
6584.00   1.69129264   0.01760012
6585.00   1.68181062   0.01770887
6586.00   1.64538848   0.01754665
6587.00   1.60534632   0.01732526
6588.00   1.67813480   0.01746223
6589.00   1.69489443   0.01757517
6590.00   1.63841748   0.01757731
6591.00   1.66087365   0.01766217
6592.00   1.69513798   0.01765984
6593.00   1.69886160   0.01755928
6594.00   1.63218975   0.01738992
6595.00   1.62970269   0.01733671
6596.00   1.66261458   0.01752234
6597.00   1.70578671   0.01772987
6598.00   1.71500969   0.01772852
6599.00   1.69478238   0.01768795
6600.00   1.76533091   0.01780805
6601.00   1.69408453   0.01761889
6602.00   1.68312538   0.01762423
6603.00   1.68614018   0.01770824
6604.00   1.67806077   0.01776010
6605.00   1.67966950   0.01771238
6606.00   1.70452261   0.01895189
6607.00   1.65760875   0.01984608
6608.00   1.72412670   0.01797034
6609.00   1.73268509   0.01756500
6610.00   1.67081356   0.01756451
6611.00   1.67485416   0.01757096
6612.00   1.69826019   0.01760997
6613.00   1.66606379   0.01751485
6614.00   1.68913138   0.01796129
6615.00   1.72540605   0.01790757
6616.00   1.68893862   0.01760720
6617.00   1.64647162   0.01752514
6618.00   1.64006257   0.01748625
6619.00   1.66905570   0.01754763
6620.00   1.66939199   0.01754489
6621.00   1.67963850   0.01758947
6622.00   1.69772613   0.01766865
6623.00   1.68350041   0.01765601
6624.00   1.72622943   0.01769317
6625.00   1.73358178   0.01774945
6626.00   1.70903647   0.01776525
6627.00   1.77772212   0.01777482
6628.00   1.75580537   0.01776644
6629.00   1.73251450   0.01876651
6630.00   1.76495552   0.01912356
6631.00   1.69939744   0.01775782
6632.00   1.69029081   0.01756668
6633.00   1.69637966   0.01763467
6634.00   1.72916615   0.01763091
6635.00   1.76938486   0.01765172
6636.00   1.72496033   0.01763771
6637.00   1.68374658   0.01759083
6638.00   1.73846912   0.01773509
6639.00   1.76935506   0.01789398
6640.00   1.71294451   0.01761397
6641.00   1.77262044   0.01766506
6642.00   1.74935317   0.01943218
6643.00   1.73066497   0.01995497
6644.00   1.76858795   0.01763001
6645.00   1.73666370   0.01763594
6646.00   1.72129059   0.01769624
6647.00   1.69933999   0.01757432
6648.00   1.74985862   0.01771571
6649.00   1.71887064   0.01767066
6650.00   1.73526561   0.01767983
6651.00   1.72208965   0.01772376
6652.00   1.69178033   0.01770625
6653.00   1.72177422   0.01785019
6654.00   1.67752337   0.01777166
6655.00   1.67188525   0.01761007
6656.00   1.70747805   0.01769566
6657.00   1.76959157   0.01782487
6658.00   1.77885163   0.01777611
6659.00   1.79372728   0.01797227
6660.00   1.73345709   0.01786624
6661.00   1.68610227   0.01765829
6662.00   1.80215883   0.01788896
6663.00   1.78348649   0.01780186
6664.00   1.71506119   0.01760435
6665.00   1.71109533   0.01755574
6666.00   1.72103000   0.01762348
6667.00   1.74931288   0.01760695
6668.00   1.76539147   0.01804423
6669.00   1.77263355   0.02038260
6670.00   1.85337067   0.02078978
6671.00   1.75219011   0.01810050
6672.00   1.72451282   0.01770375
6673.00   1.75019515   0.01768598
6674.00   1.74715340   0.01769958
6675.00   1.78211796   0.01782713
6676.00   1.75713634   0.01779069
6677.00   1.74465287   0.01771249
6678.00   1.78795779   0.01776481
6679.00   1.75908887   0.01767858
6680.00   1.73934495   0.01766647
6681.00   1.78700435   0.01775618
6682.00   1.78570688   0.01779722
6683.00   1.72976542   0.01788145
6684.00   1.75326908   0.01776618
6685.00   1.73629212   0.01765501
6686.00   1.76301491   0.01770716
6687.00   1.78738439   0.01775841
6688.00   1.79974532   0.01813485
6689.00   1.75342560   0.01841781
6690.00   1.74702621   0.01780093
6691.00   1.78237545   0.01782434
6692.00   1.74516368   0.01770739
6693.00   1.73874545   0.01767650
6694.00   1.72526181   0.01765244
6695.00   1.74605906   0.01767245
6696.00   1.76046431   0.01761094
6697.00   1.79298162   0.01968195
6698.00   1.75661314   0.01835675
6699.00   1.77045298   0.01748621
6700.00   1.75374711   0.01791142
6701.00   1.82123041   0.01809527
6702.00   1.79983950   0.01783977
6703.00   1.77360201   0.01773766
6704.00   1.81664693   0.01777022
6705.00   1.75361764   0.01791538
6706.00   1.77939057   0.01808488
6707.00   1.79598057   0.01785861
6708.00   1.75302613   0.01790952
6709.00   1.76348758   0.01796584
6710.00   1.73962200   0.01788749
6711.00   1.76770353   0.01783944
6712.00   1.79571235   0.01806285
6713.00   1.75972617   0.01945543
6714.00   1.71647501   0.01869406
6715.00   1.71501160   0.01737693
6716.00   1.78709316   0.01768177
6717.00   1.78975594   0.01770342
6718.00   1.76597440   0.01764733
6719.00   1.76302862   0.01760782
6720.00   1.77351522   0.01759491
6721.00   1.78026021   0.01769888
6722.00   1.78236520   0.01765729
6723.00   1.83886576   0.01802093
6724.00   1.83914959   0.01805297
6725.00   1.80187631   0.01766732
6726.00   1.82412672   0.01783026
6727.00   1.79959214   0.01847333
6728.00   1.82605374   0.01823646
6729.00   1.79069114   0.01764520
6730.00   1.77051675   0.01804294
6731.00   1.74907005   0.01779812
6732.00   1.76399636   0.01765575
6733.00   1.76309764   0.01770653
6734.00   1.75342488   0.01794090
6735.00   1.80733669   0.01773400
6736.00   1.74852109   0.01757072
6737.00   1.78005517   0.01764072
6738.00   1.82040179   0.01771828
6739.00   1.76743805   0.01763131
6740.00   1.75248945   0.01756739
6741.00   1.79039013   0.01759277
6742.00   1.80721712   0.01749250
6743.00   1.86701763   0.02005585
6744.00   1.82996058   0.01893853
6745.00   1.82745755   0.01749730
6746.00   1.79955447   0.01764172
6747.00   1.79721570   0.01758521
6748.00   1.81175613   0.01761635
6749.00   1.83112609   0.01769806
6750.00   1.86522555   0.01783630
6751.00   1.85483491   0.01784967
6752.00   1.80722415   0.01770999
6753.00   1.78863060   0.01761071
6754.00   1.76097786   0.01744486
6755.00   1.76075709   0.01742397
6756.00   1.83910263   0.01737927
6757.00   1.78209043   0.01920494
6758.00   1.73376870   0.01930065
6759.00   1.78485131   0.01725685
6760.00   1.72832429   0.01741097
6761.00   1.74979985   0.01743445
6762.00   1.79985344   0.01751299
6763.00   1.84125638   0.01771855
6764.00   1.85100996   0.01824074
6765.00   1.81783783   0.02231511
6766.00   1.87563622   0.02697104
6767.00   1.75185025   0.02181797
6768.00   1.65578508   0.01805284
6769.00   1.70276725   0.01772835
6770.00   1.79690194   0.01753672
6771.00   1.83120012   0.01759192
6772.00   1.79514134   0.01740686
6773.00   1.76359761   0.01726383
6774.00   1.76426458   0.01728048
6775.00   1.80629146   0.01761018
6776.00   1.76635015   0.01753319
6777.00   1.79664481   0.01739077
6778.00   1.80769157   0.01742095
6779.00   1.73967052   0.01733301
6780.00   1.76905501   0.01738971
6781.00   1.79968667   0.01743662
6782.00   1.78051794   0.01737764
6783.00   1.78292286   0.01735732
6784.00   1.83926630   0.01748459
6785.00   1.85539126   0.01763401
6786.00   1.80439115   0.01848490
6787.00   1.74893343   0.01884952
6788.00   1.71873605   0.01812921
6789.00   1.77619696   0.01781822
6790.00   1.80142272   0.01755115
6791.00   1.74283874   0.01734529
6792.00   1.80818129   0.01748633
6793.00   1.77072656   0.01738741
6794.00   1.80803061   0.01738099
6795.00   1.86536002   0.01741450
6796.00   1.82428050   0.01742486
6797.00   1.78582215   0.01736584
6798.00   1.80344152   0.01735914
6799.00   1.79622400   0.01731444
6800.00   1.78977644   0.01730122
6801.00   1.74957192   0.01719394
6802.00   1.72879553   0.01718586
6803.00   1.76505136   0.01722280
6804.00   1.73553228   0.01775990
6805.00   1.72443974   0.01792250
6806.00   1.73993123   0.01715580
6807.00   1.69703805   0.01713824
6808.00   1.70633364   0.01709252
6809.00   1.72072268   0.01710832
6810.00   1.78038239   0.01725977
6811.00   1.79830587   0.01712669
6812.00   1.77818251   0.01778675
6813.00   1.81723762   0.01975754
6814.00   1.74705577   0.01767960
6815.00   1.78454268   0.01728367
6816.00   1.78787041   0.01758053
6817.00   1.74566817   0.01768503
6818.00   1.77562654   0.01721827
6819.00   1.73555112   0.01717143
6820.00   1.70606029   0.01711724
6821.00   1.72561944   0.01707373
6822.00   1.75468910   0.01711857
6823.00   1.75070810   0.01722265
6824.00   1.73411071   0.01714681
6825.00   1.71287394   0.01707336
6826.00   1.72800708   0.01712062
6827.00   1.73351264   0.01720982
6828.00   1.72548330   0.01734861
6829.00   1.74318135   0.01759423
6830.00   1.74863029   0.01770970
6831.00   1.77350414   0.01767069
6832.00   1.71121681   0.01731796
6833.00   1.66662502   0.01814148
6834.00   1.71379030   0.01881031
6835.00   1.78041935   0.01779843
6836.00   1.75675941   0.01764209
6837.00   1.75032902   0.01750985
6838.00   1.79179358   0.01735581
6839.00   1.77640414   0.01717696
6840.00   1.71557534   0.01695001
6841.00   1.75518942   0.01708678
6842.00   1.74260700   0.01881061
6843.00   1.71051991   0.01793609
6844.00   1.70100152   0.01679777
6845.00   1.70517218   0.01694691
6846.00   1.73124981   0.01700648
6847.00   1.76469970   0.01699652
6848.00   1.74324059   0.01743061
6849.00   1.66352487   0.01755925
6850.00   1.67789829   0.01700182
6851.00   1.70892024   0.01709055
6852.00   1.70789897   0.01716182
6853.00   1.74346972   0.01715662
6854.00   1.70318627   0.01686561
6855.00   1.71305680   0.01687181
6856.00   1.73639226   0.01696722
6857.00   1.73690593   0.01701440
6858.00   1.72443414   0.01691562
6859.00   1.67675543   0.01672494
6860.00   1.68627632   0.01669850
6861.00   1.73332083   0.01685187
6862.00   1.76062393   0.01697952
6863.00   1.68895805   0.01702117
6864.00   1.65035033   0.01752635
6865.00   1.67213917   0.01780464
6866.00   1.67218208   0.01766313
6867.00   1.64373136   0.01675139
6868.00   1.62598836   0.01584047
6869.00   1.63280416   0.01686986
6870.00   1.73483372   0.01976767
6871.00   1.76957655   0.02023224
6872.00   1.70427847   0.01882786
6873.00   1.65771687   0.01784617
6874.00   1.66257322   0.01776081
6875.00   1.70576167   0.01746723
6876.00   1.70990336   0.01751510
6877.00   1.60017562   0.01913884
6878.00   1.64515483   0.01711968
6879.00   1.69270658   0.01664110
6880.00   1.68913555   0.01669883
6881.00   1.65580082   0.01687313
6882.00   1.62587774   0.01691494
6883.00   1.66745162   0.01647854
6884.00   1.67393172   0.01603238
6885.00   1.68124723   0.01594510
6886.00   1.67266679   0.01594874
6887.00   1.66521764   0.01620687
6888.00   1.67682695   0.01650902
6889.00   1.68143308   0.01643936
6890.00   1.70137775   0.01634661
6891.00   1.72305357   0.01742521
6892.00   1.71165264   0.01841037
6893.00   1.65950966   0.01646262
6894.00   1.66985190   0.01688295
6895.00   1.66093767   0.01787671
6896.00   1.63930261   0.01619604
6897.00   1.67572665   0.01566344
6898.00   1.65220845   0.01641664
6899.00   1.68338287   0.01689326
6900.00   1.64612556   0.01615251
6901.00   1.59593058   0.01592133
6902.00   1.63093030   0.01679525
6903.00   1.64662445   0.01698256
6904.00   1.65779257   0.01604655
6905.00   1.65256822   0.01565881
6906.00   1.64935672   0.01644805
6907.00   1.68852234   0.01704667
6908.00   1.75647283   0.01656848
6909.00   1.66966534   0.01576429
6910.00   1.63407934   0.01620512
6911.00   1.71930003   0.01708480
6912.00   1.72965527   0.01710011
6913.00   1.65423238   0.01645999
6914.00   1.67961884   0.01639485
6915.00   1.65897310   0.01674113
6916.00   1.60275400   0.01676589
6917.00   1.61658037   0.01637943
6918.00   1.65035546   0.01597554
6919.00   1.64782882   0.01584870
6920.00   1.64431882   0.01656466
6921.00   1.63154304   0.01904637
6922.00   1.68627441   0.01715054
6923.00   1.66587496   0.01659682
6924.00   1.59092557   0.01694120
6925.00   1.63857925   0.01740715
6926.00   1.60445070   0.01722427
6927.00   1.60865641   0.01672318
6928.00   1.66469586   0.01722776
6929.00   1.65809715   0.01698108
6930.00   1.59339893   0.01622919
6931.00   1.60340655   0.01664516
6932.00   1.65467370   0.01690139
6933.00   1.66624117   0.01658498
6934.00   1.67686880   0.01638108
6935.00   1.69723785   0.01657206
6936.00   1.65098107   0.01650502
6937.00   1.65475905   0.01711741
6938.00   1.68132198   0.01882906
6939.00   1.66403437   0.01743007
6940.00   1.63579917   0.01711862
6941.00   1.63412333   0.01762376
6942.00   1.64039326   0.01723963
6943.00   1.60869765   0.01706325
6944.00   1.65074992   0.01706600
6945.00   1.66554940   0.01694687
6946.00   1.64047384   0.01666626
6947.00   1.64263320   0.01627643
6948.00   1.64110661   0.01633687
6949.00   1.58020484   0.01727203
6950.00   1.58432710   0.01780342
6951.00   1.64691281   0.01756285
6952.00   1.61869013   0.01698821
6953.00   1.63036966   0.01647189
6954.00   1.65265608   0.01636468
6955.00   1.65841842   0.01639182
6956.00   1.64359987   0.01627302
6957.00   1.59516943   0.01635199
6958.00   1.66686058   0.01690672
6959.00   1.68552911   0.01687714
6960.00   1.59921670   0.01629631
6961.00   1.61477172   0.01625715
6962.00   1.61428785   0.01654170
6963.00   1.61966252   0.01671617
6964.00   1.64932179   0.01667804
6965.00   1.63424313   0.01654186
6966.00   1.61382329   0.01652150
6967.00   1.66608453   0.01661732
6968.00   1.66552949   0.01654746
6969.00   1.62613034   0.01651440
6970.00   1.59028709   0.01650387
6971.00   1.53348911   0.01628601
6972.00   1.58512950   0.01650551
6973.00   1.61349380   0.01694941
6974.00   1.57684755   0.01699552
6975.00   1.54311371   0.01612286
6976.00   1.54267776   0.01599799
6977.00   1.58604527   0.01608757
6978.00   1.54940796   0.01619680
6979.00   1.53506923   0.01639128
6980.00   1.57318699   0.01648252
6981.00   1.58422291   0.01628942
6982.00   1.57553589   0.01613591
6983.00   1.62130094   0.01622084
6984.00   1.61350155   0.01630092
6985.00   1.59201598   0.01614136
6986.00   1.56649053   0.01630216
6987.00   1.50430012   0.01661518
6988.00   1.53225291   0.01635451
6989.00   1.53867352   0.01626273
6990.00   1.56994474   0.01634382
6991.00   1.56493628   0.01640559
6992.00   1.53712237   0.01630535
6993.00   1.54819810   0.01613632
6994.00   1.52283406   0.01596941
6995.00   1.55712199   0.01625753
6996.00   1.55522537   0.01657904
6997.00   1.53604949   0.01640211
6998.00   1.55524182   0.01613262
6999.00   1.51246452   0.01584358
7000.00   1.50675595   0.01636197
7001.00   1.56716752   0.01699681
7002.00   1.53894937   0.01763921
7003.00   1.49528754   0.01750745
7004.00   1.51446426   0.01586931
7005.00   1.56901717   0.01577244
7006.00   1.58014929   0.01601257
7007.00   1.50634110   0.01614582
7008.00   1.51205885   0.01619327
7009.00   1.57539201   0.01601936
7010.00   1.52911198   0.01591088
7011.00   1.52069414   0.01604457
7012.00   1.52455938   0.01621513
7013.00   1.53417850   0.01638362
7014.00   1.53595781   0.01621581
7015.00   1.50569820   0.01573133
7016.00   1.45495141   0.01541128
7017.00   1.49501264   0.01576369
7018.00   1.49753487   0.01618396
7019.00   1.57236159   0.01632108
7020.00   1.53806639   0.01604568
7021.00   1.51392663   0.01589063
7022.00   1.49182332   0.01574481
7023.00   1.52706671   0.01581998
7024.00   1.54234076   0.01588296
7025.00   1.48708212   0.01587077
7026.00   1.45745742   0.01581128
7027.00   1.47242451   0.01570804
7028.00   1.50981987   0.01582744
7029.00   1.52267087   0.01623285
7030.00   1.51172400   0.01632577
7031.00   1.49464798   0.01616015
7032.00   1.48380888   0.01604045
7033.00   1.50471473   0.01613222
7034.00   1.48107755   0.01621144
7035.00   1.47498286   0.01594191
7036.00   1.50056744   0.01564105
7037.00   1.52724981   0.01565506
7038.00   1.51631713   0.01571835
7039.00   1.48740840   0.01575754
7040.00   1.48528540   0.01580067
7041.00   1.54288352   0.01602880
7042.00   1.54963756   0.01619743
7043.00   1.51657677   0.01618860
7044.00   1.48742223   0.01596497
7045.00   1.45446789   0.01578642
7046.00   1.50202870   0.01574509
7047.00   1.49087596   0.01572185
7048.00   1.45698178   0.01580166
7049.00   1.47177470   0.01587343
7050.00   1.47031510   0.01570744
7051.00   1.45873570   0.01558924
7052.00   1.50406837   0.01572816
7053.00   1.48632467   0.01585323
7054.00   1.52268493   0.01596689
7055.00   1.52851260   0.01601715
7056.00   1.51623631   0.01658221
7057.00   1.51202309   0.01597851
7058.00   1.50274408   0.01564800
7059.00   1.49871492   0.01581824
7060.00   1.47100008   0.01568915
7061.00   1.47191298   0.01562545
7062.00   1.50496316   0.01584724
7063.00   1.49220359   0.01588042
7064.00   1.48649442   0.01566874
7065.00   1.49237227   0.01565761
7066.00   1.48587871   0.01561125
7067.00   1.53734183   0.01583447
7068.00   1.51692045   0.01576349
7069.00   1.47293437   0.01556418
7070.00   1.47320020   0.01589658
7071.00   1.50717044   0.01672509
7072.00   1.49819171   0.01610078
7073.00   1.50184917   0.01550080
7074.00   1.47454596   0.01549565
7075.00   1.41546261   0.01533907
7076.00   1.48809254   0.01571349
7077.00   1.52460051   0.01608502
7078.00   1.51456785   0.01567399
7079.00   1.54289770   0.01568061
7080.00   1.51406753   0.01565585
7081.00   1.49283504   0.01574076
7082.00   1.49153113   0.01585895
7083.00   1.46433985   0.01573351
7084.00   1.45136726   0.01558476
7085.00   1.45584929   0.01553674
7086.00   1.47609556   0.01546421
7087.00   1.46737385   0.01541407
7088.00   1.44026446   0.01540734
7089.00   1.45799923   0.01556633
7090.00   1.49764311   0.01573729
7091.00   1.51749098   0.01582029
7092.00   1.46935689   0.01562896
7093.00   1.49898052   0.01560929
7094.00   1.49067318   0.01559819
7095.00   1.45962107   0.01548186
7096.00   1.47662163   0.01554123
7097.00   1.48615038   0.01552436
7098.00   1.44338918   0.01533856
7099.00   1.42530155   0.01530536
7100.00   1.45438802   0.01532516
7101.00   1.43082595   0.01526570
7102.00   1.47517538   0.01550908
7103.00   1.52808750   0.01562813
7104.00   1.44047248   0.01538069
7105.00   1.43904209   0.01534383
7106.00   1.46234262   0.01547479
7107.00   1.47044182   0.01552540
7108.00   1.47655261   0.01545469
7109.00   1.45615220   0.01535456
7110.00   1.47465146   0.01544803
7111.00   1.43428993   0.01536704
7112.00   1.44950879   0.01527993
7113.00   1.47455442   0.01536678
7114.00   1.47623193   0.01572361
7115.00   1.52903092   0.01744056
7116.00   1.48944855   0.01612589
7117.00   1.48782253   0.01550200
7118.00   1.45902038   0.01570221
7119.00   1.44534552   0.01557082
7120.00   1.42551744   0.01551601
7121.00   1.41351211   0.01542773
7122.00   1.43935955   0.01552174
7123.00   1.44369531   0.01525310
7124.00   1.44285417   0.01705154
7125.00   1.43761671   0.01665508
7126.00   1.45319533   0.01546681
7127.00   1.48969066   0.01564107
7128.00   1.51159692   0.01553560
7129.00   1.47701907   0.01537364
7130.00   1.44256747   0.01590868
7131.00   1.46556568   0.01666205
7132.00   1.44543827   0.01569438
7133.00   1.47103369   0.01520001
7134.00   1.46204937   0.01661320
7135.00   1.41950798   0.01695171
7136.00   1.43794787   0.01544106
7137.00   1.41825664   0.01553824
7138.00   1.44238782   0.01547166
7139.00   1.50913107   0.01565267
7140.00   1.49278963   0.01557224
7141.00   1.48285520   0.01594692
7142.00   1.51771569   0.01702502
7143.00   1.50089681   0.01638209
7144.00   1.49313855   0.01563612
7145.00   1.41931975   0.01538055
7146.00   1.41676474   0.01543151
7147.00   1.44890356   0.01553947
7148.00   1.40016270   0.01519234
7149.00   1.46451974   0.01547635
7150.00   1.45010805   0.01531246
7151.00   1.45755029   0.01524054
7152.00   1.49424684   0.01546335
7153.00   1.49015343   0.01554656
7154.00   1.44526315   0.01544277
7155.00   1.44867384   0.01540975
7156.00   1.44830227   0.01530442
7157.00   1.43034184   0.01533580
7158.00   1.39699268   0.01539128
7159.00   1.40692270   0.01535301
7160.00   1.48846304   0.01558692
7161.00   1.45896363   0.01567129
7162.00   1.42720413   0.01545684
7163.00   1.42130518   0.01527115
7164.00   1.40710044   0.01521148
7165.00   1.44201088   0.01526049
7166.00   1.41960132   0.01499458
7167.00   1.44086623   0.01487300
7168.00   1.46210158   0.01508706
7169.00   1.47946239   0.01574030
7170.00   1.44125569   0.01590220
7171.00   1.49685514   0.01589128
7172.00   1.41319537   0.01577193
7173.00   1.45648825   0.01585773
7174.00   1.47791910   0.01635100
7175.00   1.51807797   0.01744160
7176.00   1.53051329   0.01692655
7177.00   1.47954404   0.01581494
7178.00   1.44376028   0.01595330
7179.00   1.46827447   0.01702803
7180.00   1.54672682   0.01719314
7181.00   1.50673509   0.01608936
7182.00   1.46711254   0.01550407
7183.00   1.45943224   0.01608400
7184.00   1.50363922   0.01754684
7185.00   1.42455387   0.01604181
7186.00   1.43043184   0.01679047
7187.00   1.45837831   0.01702916
7188.00   1.48750508   0.01797976
7189.00   1.50296640   0.01852140
7190.00   1.49126327   0.01711122
7191.00   1.51925695   0.01696797
7192.00   1.46350968   0.01717465
7193.00   1.39575374   0.01639846
7194.00   1.48460019   0.01682138
7195.00   1.48118818   0.01701806
7196.00   1.49371493   0.01823279
7197.00   1.46650589   0.01658992
7198.00   1.42884111   0.01551838
7199.00   1.44026363   0.01605593
7200.00   1.46234608   0.01606912
7201.00   1.38177264   0.01527306
7202.00   1.52853155   0.01772191
%7203.00   2.61215234   0.03169771
%7204.00   3.80604243   0.04184169
%7205.00   3.87221408   0.04147234
%7206.00   3.85738611   0.04309355
%7207.00   2.42739224   0.02727526
7208.00   1.49099767   0.01696214
7209.00   1.39890110   0.01574836
7210.00   1.42113638   0.01569295
7211.00   1.42540359   0.01623820
7212.00   1.42638922   0.01596068
7213.00   1.40671742   0.01560462
7214.00   1.39102006   0.01541890
7215.00   1.39004767   0.01506255
7216.00   1.37480414   0.01479822
7217.00   1.39268255   0.01491648
7218.00   1.35140705   0.01515089
7219.00   1.39440024   0.01543263
7220.00   1.43856263   0.01533179
7221.00   1.43557465   0.01525864
7222.00   1.43483078   0.01516532
7223.00   1.37388504   0.01480740
7224.00   1.33344483   0.01489703
7225.00   1.35567093   0.01557087
7226.00   1.39046550   0.01587165
7227.00   1.39528561   0.01516442
7228.00   1.37430251   0.01495932
7229.00   1.41556883   0.01548455
7230.00   1.43914771   0.01561400
7231.00   1.40309036   0.01516888
7232.00   1.36895657   0.01465093
7233.00   1.37971485   0.01483100
7234.00   1.43142748   0.01565053
7235.00   1.43310916   0.01630957
7236.00   1.47466433   0.01696353
7237.00   1.51436627   0.01740299
7238.00   1.46821165   0.01702850
7239.00   1.37156630   0.01617080
7240.00   1.33857358   0.01581848
7241.00   1.34011066   0.01709090
7242.00   1.40749562   0.01907896
7243.00   1.45212066   0.01783886
7244.00   1.40452433   0.01677194
7245.00   1.37592947   0.01739679
7246.00   1.42526162   0.01807948
7247.00   1.40801656   0.01757191
7248.00   1.38649714   0.01664926
7249.00   1.41266370   0.01594925
7250.00   1.39542866   0.01558048
7251.00   1.36496639   0.01513194
7252.00   1.37200940   0.01504672
7253.00   1.40537870   0.01584849
7254.00   1.38700163   0.01682681
7255.00   1.42858112   0.01852059
7256.00   1.46775019   0.01748638
7257.00   1.37835765   0.01534108
7258.00   1.30285048   0.01482481
7259.00   1.32356536   0.01535324
7260.00   1.37465298   0.01544479
7261.00   1.35299540   0.01504332
7262.00   1.33957088   0.01483063
7263.00   1.39806235   0.01514550
7264.00   1.39959800   0.01516628
7265.00   1.35374904   0.01500607
7266.00   1.31056011   0.01552721
7267.00   1.38669753   0.01687325
7268.00   1.48972976   0.01695686
7269.00   1.40457463   0.01582791
7270.00   1.35092819   0.01531883
7271.00   1.38812804   0.01514218
7272.00   1.38807762   0.01521484
7273.00   1.37969792   0.01493493
7274.00   1.34639502   0.01529049
7275.00   1.38680983   0.01617218
7276.00   1.36349547   0.01693055
7277.00   1.32347751   0.01817695
7278.00   1.36282682   0.01907137
7279.00   1.43481052   0.02025648
7280.00   1.43316245   0.02055185
7281.00   1.45611000   0.01619133
7282.00   1.36079884   0.01523259
7283.00   1.37379289   0.01537930
7284.00   1.43584251   0.01616807
7285.00   1.37749159   0.01667746
7286.00   1.37834346   0.01617415
7287.00   1.36833453   0.01525885
7288.00   1.36333585   0.01505536
7289.00   1.41398835   0.01562284
7290.00   1.40625894   0.01543659
7291.00   1.40189469   0.01504782
7292.00   1.41561759   0.01564811
7293.00   1.39090705   0.01594501
7294.00   1.37827384   0.01560536
7295.00   1.38724720   0.01547429
7296.00   1.38822043   0.01574959
7297.00   1.37249494   0.01590431
7298.00   1.39222109   0.01568612
7299.00   1.37351358   0.01501998
7300.00   1.36909235   0.01473892
7301.00   1.37182236   0.01495930
7302.00   1.40708315   0.01522757
7303.00   1.41193652   0.01517218
7304.00   1.40316367   0.01577489
7305.00   1.43165171   0.01702685
7306.00   1.39010727   0.01708555
7307.00   1.38111842   0.01602542
7308.00   1.40849376   0.01595909
7309.00   1.40667725   0.01550224
7310.00   1.37957156   0.01473262
7311.00   1.38711107   0.01546168
7312.00   1.41462123   0.01576866
7313.00   1.42290664   0.01540069
7314.00   1.39839900   0.01547714
7315.00   1.40559769   0.01771733
7316.00   1.40329289   0.01671374
7317.00   1.34598255   0.01670207
7318.00   1.37270939   0.01726249
7319.00   1.41607213   0.01732014
7320.00   1.45022047   0.01706002
7321.00   1.40926278   0.01651867
7322.00   1.40623689   0.01575930
7323.00   1.40738034   0.01518714
7324.00   1.37889707   0.01497147
7325.00   1.30693316   0.01653398
7326.00   1.38065004   0.01551970
7327.00   1.43502426   0.01478947
7328.00   1.40000880   0.01529208
7329.00   1.41602290   0.01656582
7330.00   1.34945762   0.01603956
7331.00   1.41325152   0.01600605
7332.00   1.38710153   0.01569564
7333.00   1.39039540   0.01529533
7334.00   1.40333664   0.01525168
7335.00   1.41229510   0.01616758
7336.00   1.46502292   0.01606606
7337.00   1.40822661   0.01537414
7338.00   1.32564807   0.01527221
7339.00   1.28305697   0.01940216
7340.00   1.32738149   0.01762535
%7341.00   1.04787481   0.01717124
%7342.00   0.86467314   0.01773121
%7343.00   1.23973906   0.01711813
7344.00   1.37930071   0.01578257
7345.00   1.39508045   0.01531866
7346.00   1.41130352   0.01554612
7347.00   1.40965152   0.01543995
7348.00   1.35622191   0.01500362
7349.00   1.41063368   0.01491618
7350.00   1.43839347   0.01517043
7351.00   1.39749980   0.01541751
7352.00   1.40734017   0.01535660
7353.00   1.38707209   0.01511542
7354.00   1.43612456   0.01504001
7355.00   1.38201702   0.01509290
7356.00   1.39748454   0.01505788
7357.00   1.42071092   0.01488079
7358.00   1.40954483   0.01530540
7359.00   1.40902042   0.01571459
7360.00   1.40107894   0.01563829
7361.00   1.40864801   0.01543532
7362.00   1.43091691   0.01541831
7363.00   1.44635808   0.01528251
7364.00   1.36427283   0.01485391
7365.00   1.35778153   0.01486586
7366.00   1.42839682   0.01505121
7367.00   1.41391730   0.01501225
7368.00   1.37993419   0.01509256
7369.00   1.37435520   0.01573941
7370.00   1.36646175   0.01622039
7371.00   1.37219274   0.01648067
7372.00   1.40621626   0.01632834
7373.00   1.42052615   0.01557802
7374.00   1.40347838   0.01535237
7375.00   1.35935712   0.01636491
7376.00   1.37444091   0.01529503
7377.00   1.37501097   0.01478444
7378.00   1.37651277   0.01486267
7379.00   1.38690996   0.01490153
7380.00   1.41410816   0.01504953
7381.00   1.42332387   0.01509841
7382.00   1.37179160   0.01495066
7383.00   1.36503398   0.01487581
7384.00   1.41273355   0.01491770
7385.00   1.42853343   0.01504169
7386.00   1.40566921   0.01514838
7387.00   1.45089316   0.01516533
7388.00   1.44197571   0.01494541
7389.00   1.36600256   0.01462654
7390.00   1.40190446   0.01469817
7391.00   1.42289460   0.01503755
7392.00   1.45273054   0.01541779
7393.00   1.44223416   0.01558617
7394.00   1.41509724   0.01560548
7395.00   1.43081522   0.01532215
7396.00   1.42040694   0.01504648
7397.00   1.41722417   0.01497969
7398.00   1.42063951   0.01509385
7399.00   1.40806568   0.01524377
7400.00   1.44850111   0.01536232
7401.00   1.46469164   0.01599212
7402.00   1.40113008   0.02156172
%7403.00   2.50138402   0.03146751
%7404.00   2.73841667   0.02805745
7405.00   1.47111332   0.01543465
7406.00   1.33677113   0.01485839
7407.00   1.37307620   0.01572303
7408.00   1.33879507   0.01536971
7409.00   1.38786972   0.01512977
7410.00   1.43540692   0.01500511
7411.00   1.36337698   0.01518602
7412.00   1.32772195   0.01462007
7413.00   1.34123373   0.01460090
7414.00   1.38919461   0.01563431
7415.00   1.42695653   0.01601008
7416.00   1.38345313   0.01477399
7417.00   1.38611174   0.01468573
7418.00   1.37554157   0.01479084
7419.00   1.36307323   0.01485031
7420.00   1.38447595   0.01489133
7421.00   1.35438359   0.01481260
7422.00   1.32066905   0.01466891
7423.00   1.39122355   0.01471710
7424.00   1.36955130   0.01463269
7425.00   1.41109681   0.01473860
7426.00   1.39397144   0.01476959
7427.00   1.37800443   0.01478366
7428.00   1.36783600   0.01481621
7429.00   1.37069809   0.01494790
7430.00   1.35366464   0.01506840
7431.00   1.38942420   0.01522381
7432.00   1.37399423   0.01515847
7433.00   1.37554705   0.01502594
7434.00   1.35743880   0.01499960
7435.00   1.37661636   0.01528161
7436.00   1.39753270   0.01501181
7437.00   1.40057123   0.01506290
7438.00   1.38268697   0.01523835
7439.00   1.38343000   0.01540145
7440.00   1.38633096   0.01541841
7441.00   1.38112450   0.01522043
7442.00   1.38255036   0.01498493
7443.00   1.39252305   0.01490645
7444.00   1.38366354   0.01491962
7445.00   1.34164202   0.01481968
7446.00   1.38580358   0.01484252
7447.00   1.36335909   0.01479103
7448.00   1.37397766   0.01494572
7449.00   1.39219940   0.01528441
7450.00   1.40009499   0.01517891
7451.00   1.45137954   0.01509666
7452.00   1.42290163   0.01529146
7453.00   1.38286185   0.01510676
7454.00   1.32469082   0.01488640
7455.00   1.29938376   0.01483766
7456.00   1.35428751   0.01493929
7457.00   1.41095316   0.01525577
7458.00   1.39969921   0.01494000
7459.00   1.41151774   0.01553232
7460.00   1.37273657   0.01616207
7461.00   1.38186717   0.01569587
7462.00   1.37017322   0.01584104
7463.00   1.30353773   0.01477113
7464.00   1.34696198   0.01485047
7465.00   1.29553533   0.01481169
7466.00   1.28500783   0.01490763
7467.00   1.38298190   0.01506044
7468.00   1.34995615   0.01506093
7469.00   1.33835852   0.01490886
7470.00   1.36119866   0.01580798
7471.00   1.43591893   0.01707787
7472.00   1.36397207   0.01511165
7473.00   1.33765507   0.01520788
7474.00   1.37168121   0.01534136
7475.00   1.37850761   0.01530829
7476.00   1.32874203   0.01514282
7477.00   1.29873121   0.01496250
7478.00   1.35039020   0.01497672
7479.00   1.36167920   0.01512113
7480.00   1.36048639   0.01522067
7481.00   1.34877300   0.01523264
7482.00   1.33012819   0.01525456
7483.00   1.34647584   0.01529082
7484.00   1.29051685   0.01524442
7485.00   1.30853105   0.01531932
7486.00   1.33920074   0.01523801
7487.00   1.33266234   0.01509590
7488.00   1.33214474   0.01498346
7489.00   1.34477580   0.01495345
7490.00   1.25863361   0.01482826
7491.00   1.29049909   0.01479844
7492.00   1.31910419   0.01501849
7493.00   1.27188873   0.01602758
7494.00   1.29924345   0.01579276
7495.00   1.32300901   0.01469435
7496.00   1.30068493   0.01472919
7497.00   1.30696011   0.01473480
7498.00   1.31870663   0.01477390
7499.00   1.34406137   0.01468878
7500.00   1.33851361   0.01542732
7501.00   1.29461074   0.01615700
7502.00   1.29133558   0.01582767
7503.00   1.27495277   0.01629477
7504.00   1.31895077   0.01481251
7505.00   1.35435140   0.01504019
7506.00   1.29484212   0.01495816
7507.00   1.26742029   0.01474915
7508.00   1.32297492   0.01473422
7509.00   1.33898175   0.01493817
7510.00   1.35553741   0.01537075
7511.00   1.32421637   0.01499234
7512.00   1.31274402   0.01495898
7513.00   1.33443797   0.01521530
7514.00   1.29773712   0.01501715
7515.00   1.27048838   0.01530680
7516.00   1.30699337   0.01659097
7517.00   1.36986291   0.01691170
7518.00   1.33158636   0.01690770
7519.00   1.25815654   0.01672009
7520.00   1.23724055   0.01733492
7521.00   1.28952301   0.01559810
7522.00   1.27444017   0.01565287
7523.00   1.22699094   0.01699622
7524.00   1.26312673   0.01634637
7525.00   1.27058685   0.01679003
7526.00   1.29763901   0.01635449
7527.00   1.26308262   0.01544522
7528.00   1.22641540   0.01506561
7529.00   1.27651739   0.01510687
7530.00   1.25497949   0.01596986
7531.00   1.25970149   0.01555793
7532.00   1.29835057   0.01543433
7533.00   1.27546382   0.01510875
7534.00   1.28197300   0.01488743
7535.00   1.28302813   0.01486179
7536.00   1.24914587   0.01479820
7537.00   1.28279519   0.01485291
7538.00   1.33434343   0.01492555
7539.00   1.29543853   0.01483892
7540.00   1.24479735   0.01472581
7541.00   1.29449761   0.01502356
7542.00   1.32740331   0.01617400
7543.00   1.23951161   0.01508584
7544.00   1.19665515   0.01473788
7545.00   1.25531554   0.01482183
7546.00   1.27642512   0.01493237
7547.00   1.25672495   0.01488201
7548.00   1.23632348   0.01464126
7549.00   1.25353420   0.01458875
7550.00   1.22137737   0.01470052
7551.00   1.18169677   0.01720928
7552.00   1.23130608   0.01559526
7553.00   1.23091388   0.01460020
7554.00   1.23968685   0.01461098
7555.00   1.24001253   0.01475062
7556.00   1.24868453   0.01499407
7557.00   1.24076378   0.01512109
7558.00   1.25968432   0.01508445
7559.00   1.24953926   0.01499728
7560.00   1.19614446   0.01578787
7561.00   1.22967410   0.01506948
7562.00   1.24865460   0.01469316
7563.00   1.21255386   0.01502470
7564.00   1.26000226   0.01490745
7565.00   1.23391581   0.01485798
7566.00   1.17606378   0.01503679
7567.00   1.16993511   0.01518969
7568.00   1.18425560   0.01481789
7569.00   1.19217587   0.01507335
7570.00   1.19080377   0.01492172
7571.00   1.20063055   0.01491295
7572.00   1.22321630   0.01598332
7573.00   1.17162359   0.01740418
7574.00   1.21141911   0.01552813
7575.00   1.19857740   0.01508320
7576.00   1.12518144   0.01496044
7577.00   1.24317122   0.01478582
7578.00   1.26290607   0.01504719
7579.00   1.27146578   0.01594895
7580.00   1.28819978   0.01656820
7581.00   1.27376592   0.01625838
7582.00   1.24969494   0.01601154
7583.00   1.29998362   0.01738099
7584.00   1.19824970   0.01884139
%7585.00   0.89343292   0.01710307
%7586.00   0.76347941   0.01523843
7587.00   0.99671566   0.01793516
7588.00   1.21042407   0.01691146
7589.00   1.20021081   0.01582764
7590.00   1.25651109   0.01725132
7591.00   1.24226856   0.01548706
7592.00   1.16930223   0.01562129
7593.00   1.19274187   0.01420322
7594.00   1.17567658   0.01297929
7595.00   1.13198733   0.01359662
7596.00   1.27810121   0.01599973
7597.00   1.45560896   0.01980649
7598.00   1.36523235   0.02243994
7599.00   1.28960633   0.02248442
7600.00   1.14372909   0.02461063
7601.00   1.22141242   0.02402095
7602.00   1.21404135   0.02447827
7603.00   1.20902157   0.02748706
7604.00   1.26403475   0.02994790
7605.00   1.18635046   0.03100131
7606.00   1.02128041   0.03123761
7607.00   1.08589470   0.03195613
7608.00   1.30620015   0.03732564
7609.00   1.18979561   0.03410278
7610.00   1.26939416   0.03222811
7611.00   1.22028410   0.02941219
7612.00   1.20781362   0.02749452
7613.00   1.21164393   0.02359772
7614.00   1.21677125   0.02254111
7615.00   1.16949344   0.01981525
7616.00   1.18614864   0.01825242
7617.00   1.24464822   0.02111762
7618.00   1.20271969   0.02034477
7619.00   1.14041221   0.01502486
7620.00   1.15104270   0.01277045
7621.00   1.12503231   0.01239734
7622.00   1.14947045   0.01362688
7623.00   1.16620636   0.01402162
7624.00   1.18988609   0.01452665
7625.00   1.17264318   0.01706578
7626.00   1.20277238   0.01903199
7627.00   1.21958661   0.01670519
7628.00   1.07261825   0.01626220
7629.00   1.17126155   0.01947709
7630.00   1.29566526   0.02028752
7631.00   1.12631631   0.01668888
7632.00   1.03692257   0.01586057
7633.00   1.28072798   0.02043721
7634.00   1.31223738   0.01984461
7635.00   1.09280956   0.01502238
7636.00   1.00935435   0.01448492
7637.00   1.18652833   0.01831810
7638.00   1.38637602   0.02015423
7639.00   1.21233630   0.01658968
7640.00   1.02585840   0.01361914
7641.00   1.06921601   0.01591016
7642.00   1.29401410   0.01937319
7643.00   1.27079165   0.01734885
7644.00   1.07264924   0.01356529
7645.00   1.03055775   0.01356606
7646.00   1.14029300   0.01696451
7647.00   1.31629932   0.01818345
7648.00   1.15520120   0.01497880
7649.00   1.06814647   0.01316706
7650.00   1.06247151   0.01508743
7651.00   1.17401648   0.01694915
7652.00   1.30272913   0.01746693
7653.00   1.19784725   0.01485838
7654.00   1.05034685   0.01304469
7655.00   1.05375087   0.01380105
7656.00   1.17562854   0.01603287
7657.00   1.23035085   0.01646681
7658.00   1.14864874   0.01481565
7659.00   1.07340431   0.01359731
7660.00   1.11841643   0.01528601
7661.00   1.12013912   0.01615120
7662.00   1.18932855   0.01635134
7663.00   1.14610565   0.01560057
7664.00   1.08650696   0.01425820
7665.00   1.03582919   0.01337356
7666.00   1.04526269   0.01413199
7667.00   1.13799846   0.01552359
7668.00   1.11017716   0.01546190
7669.00   1.06873298   0.01474086
7670.00   1.04433012   0.01367994
7671.00   1.04544473   0.01347143
7672.00   1.06554520   0.01424133
7673.00   1.10785663   0.01585351
7674.00   1.15360868   0.01617779
7675.00   1.06447220   0.01553287
7676.00   1.04319680   0.01460100
7677.00   1.04040301   0.01380882
7678.00   1.04548466   0.01443589
7679.00   1.07582176   0.01505276
7680.00   1.06579292   0.01502384
7681.00   1.07535088   0.01483848
7682.00   1.12262273   0.01544057
7683.00   1.06111515   0.01480674
7684.00   1.02148247   0.01445177
7685.00   1.06793630   0.01515906
7686.00   1.06041694   0.01522760
7687.00   1.06082416   0.01496376
7688.00   1.05400419   0.01472015
7689.00   1.01609111   0.01451582
7690.00   1.03095818   0.01463134
7691.00   1.07130742   0.01490778
7692.00   1.02488780   0.01596249
7693.00   1.08255780   0.01557953
7694.00   1.04688597   0.01497705
7695.00   1.03443372   0.01476268
7696.00   0.99616206   0.01470519
7697.00   1.01799119   0.01523374
7698.00   1.02257848   0.01508425
7699.00   1.03165853   0.01525438
7700.00   1.02185285   0.01526725
7701.00   1.04085886   0.01531194
7702.00   1.05785227   0.01520472
7703.00   1.01209831   0.01515639
7704.00   1.00037766   0.01539934
7705.00   0.99269921   0.01535271
7706.00   1.03574145   0.01532081
7707.00   1.01144922   0.01527441
7708.00   0.99323082   0.01527764
7709.00   0.98072821   0.01501584
7710.00   1.00203502   0.01523996
7711.00   1.00829136   0.01610921
7712.00   1.01292074   0.01694776
7713.00   0.96700460   0.01763665
7714.00   0.95225841   0.01678492
7715.00   1.00218523   0.01717152
7716.00   1.00994802   0.01761968
7717.00   1.01217604   0.01692239
7718.00   0.99631768   0.01880014
7719.00   0.95445514   0.01758023
7720.00   0.94694257   0.01610367
7721.00   0.94660622   0.01600324
7722.00   0.93903244   0.01570200
7723.00   0.96299326   0.01562509
7724.00   1.01666701   0.01555379
7725.00   0.95460290   0.01665491
7726.00   0.92080033   0.01639345
7727.00   0.98915803   0.01546840
7728.00   1.05288458   0.01570245
7729.00   1.00116169   0.01551306
7730.00   0.99414957   0.01540438
7731.00   0.96079034   0.01566459
7732.00   1.01068318   0.01600842
7733.00   0.97415257   0.01561710
7734.00   1.01083100   0.01592466
7735.00   0.95292568   0.01560688
7736.00   0.94883108   0.01560181
7737.00   0.93108869   0.01551986
7738.00   0.88781762   0.01540538
7739.00   0.91707832   0.01555736
7740.00   0.94940627   0.01566942
7741.00   0.95343196   0.01548386
7742.00   0.95744610   0.01711576
7743.00   0.95409119   0.01716896
7744.00   0.93044269   0.01522939
7745.00   0.92241812   0.01602877
7746.00   0.98034853   0.01586761
7747.00   0.95211726   0.01547688
7748.00   0.92385203   0.01589912
7749.00   0.94036245   0.01671352
7750.00   0.96519011   0.01766016
7751.00   0.95444083   0.01839121
7752.00   0.92062360   0.01807662
7753.00   0.93459791   0.01795227
7754.00   0.97894037   0.01749009
7755.00   0.92686886   0.01681947
7756.00   0.89086825   0.01644951
7757.00   0.91892451   0.01624638
7758.00   0.95430839   0.01608581
7759.00   0.97357893   0.01632524
7760.00   0.99473143   0.01673509
7761.00   0.89994574   0.01657716
7762.00   0.89775908   0.01655901
7763.00   0.92657185   0.01743752
7764.00   0.93384111   0.01654840
7765.00   0.87312961   0.01617415
7766.00   0.87859511   0.01623431
7767.00   0.90675825   0.01627959
7768.00   0.89939803   0.01670932
7769.00   0.85596496   0.01759305
7770.00   0.87199169   0.01689641
7771.00   0.89823806   0.01607230
7772.00   0.91491163   0.01631502
7773.00   0.93231034   0.01644123
7774.00   0.91433316   0.01643023
7775.00   0.96066260   0.01642987
7776.00   0.96900958   0.01645548
7777.00   0.95970809   0.01641026
7778.00   0.95358658   0.01641701
7779.00   0.92839819   0.01666548
7780.00   0.94927508   0.01675060
7781.00   0.89817852   0.01667656
7782.00   0.86507535   0.01800096
7783.00   0.88572621   0.01842717
7784.00   0.92090404   0.01663301
7785.00   0.89876932   0.01651530
7786.00   0.94474280   0.01664168
7787.00   0.92194784   0.01651224
7788.00   0.92421800   0.01639099
7789.00   0.95058411   0.01650085
7790.00   0.93333071   0.01661261
7791.00   0.95623648   0.01688092
7792.00   0.98352790   0.01771418
7793.00   0.92822713   0.01847618
7794.00   0.87116313   0.01871961
7795.00   0.86353844   0.01856314
7796.00   0.90279824   0.01833929
7797.00   0.91909993   0.01828529
7798.00   0.90241921   0.01803777
7799.00   0.93254828   0.01790994
7800.00   0.97182715   0.01765762
7801.00   0.93387043   0.01687011
7802.00   0.93540323   0.01696983
7803.00   0.86732244   0.01700451
7804.00   0.91186243   0.01765906
7805.00   0.87693340   0.01719178
7806.00   0.90976405   0.01738109
7807.00   0.93630427   0.01862588
7808.00   0.85799634   0.01889820
7809.00   0.86642140   0.01827211
7810.00   0.89473224   0.01789876
7811.00   0.89360613   0.01779938
7812.00   0.94326508   0.01795082
7813.00   0.88819772   0.01750735
7814.00   0.94698441   0.01750936
7815.00   0.98520827   0.01739481
7816.00   0.93419272   0.01721899
7817.00   0.95605063   0.01704610
7818.00   0.93083912   0.01703403
7819.00   0.83221656   0.01742322
7820.00   0.87579781   0.01836451
7821.00   0.90839106   0.01908615
7822.00   0.91922349   0.01921531
7823.00   0.92442423   0.01981608
7824.00   0.91217500   0.01942148
7825.00   0.93041897   0.01858222
7826.00   0.96160579   0.01851000
7827.00   0.89305991   0.01746833
7828.00   0.89247406   0.01727644
7829.00   0.92268032   0.01771836
7830.00   0.94522744   0.01793995
7831.00   0.98724282   0.01769696
7832.00   0.95148790   0.01748498
7833.00   0.90023047   0.01728187
7834.00   0.87653649   0.01813391
7835.00   0.84279227   0.01738619
7836.00   0.89478147   0.01695390
7837.00   0.92447472   0.01826039
7838.00   0.97692150   0.02002591
7839.00   1.06589460   0.02087148
7840.00   1.04299283   0.02097278
7841.00   1.04432976   0.02333063
7842.00   1.01506639   0.02349190
7843.00   0.89235002   0.02266372
7844.00   0.93722540   0.02558167
7845.00   1.02941918   0.02537545
%7846.00   1.22287691   0.02868526
%7847.00   1.63231635   0.04231693
%7848.00   2.60241866   0.11068694
%7849.00   2.69650936   0.17231734
