# SOURCE  = 'Quimby et al. 2018' /                                                
# OBJECT  = 'PTF09atu'           /                                                
# Z       =             0.501400 / wavelengths in OBSERVER FRAME                 
# NORM    =          1.49370E-17 / fluxes divided by norm                         
# CLIPPED =                    1 / galaxy emission lines removed                  
# SMOOTHED=                    1 / spectrum has been smoothed                     
# COLUMN01= 'Wavelength (Angstrom)' /                                             
# COLUMN02= 'Flux Density (erg/s/cm2/A)' /                                        
# COLUMN03= 'Flux Density Uncertainty (erg/s/cm2/A)' /                            
# END                                                                             
# 
# 
# 
# 
# 
# 
# 
# 
# 
# 
# Converted to Observer Frame using z=0.501
 4797.93994 1.2537808 0.1241522
 4802.73985 1.2313091 0.1213687
 4807.54030 1.2327306 0.1187932
 4812.34021 1.2338235 0.1164670
 4817.16322 1.2363675 0.1140637
 4821.98569 1.2025472 0.1117055
 4826.80870 1.2637672 0.1086140
 4831.63117 1.2747730 0.1063913
 4836.45418 1.2749748 0.1042489
 4841.29921 1.2863212 0.1022374
 4846.14423 1.2468944 0.1002333
 4850.98980 1.2460130 0.0985100
 4855.83483 1.2342860 0.0969641
 4860.70296 1.2320014 0.0952537
 4865.54798 1.2464952 0.0928300
 4870.41556 1.2298985 0.0911320
 4875.28369 1.2225554 0.0892142
 4880.17383 1.2316463 0.0873008
 4885.04141 1.2332520 0.0856338
 4889.93210 1.1944281 0.0839553
 4894.82224 1.1347573 0.0823746
 4899.71238 1.1205438 0.0809367
 4904.62563 1.0817735 0.0788062
 4909.51577 0.9995979 0.0774300
 4914.42846 0.9662405 0.0759616
 4919.34116 0.9147763 0.0745858
 4924.27697 0.8681125 0.0734256
 4929.18966 0.8411149 0.0721758
 4934.12492 0.8043820 0.0709954
 4939.06017 0.7777788 0.0694771
 4943.99598 0.7565982 0.0683606
 4948.93123 0.7426305 0.0674599
 4953.88905 0.7397909 0.0663726
 4958.84686 0.7535308 0.0652789
 4963.80522 0.7348943 0.0643836
 4968.76303 0.7334280 0.0627638
 4973.74341 0.7553573 0.0618254
 4978.70122 0.7494867 0.0608391
 4983.68159 0.7730284 0.0598147
 4988.66196 0.7842608 0.0587286
 4993.66544 0.8168722 0.0574964
 4998.64581 0.8223285 0.0564338
 5003.64874 0.8642222 0.0548645
 5008.65167 0.9034611 0.0538976
 5013.65460 0.9311562 0.0531424
 5018.68009 0.9624643 0.0523847
 5023.70557 0.9875202 0.0518082
 5028.73106 1.0290440 0.0508225
 5033.75655 1.0586975 0.0502613
 5038.78203 1.0731330 0.0499393
 5043.83063 1.0836982 0.0494819
 5048.87867 1.1061217 0.0492222
 5053.92672 1.1193460 0.0487893
 5058.97476 1.1304406 0.0481692
 5064.02281 1.1241395 0.0476480
 5069.09341 1.1196040 0.0470932
 5074.16402 1.1269331 0.0466321
 5079.23462 1.1646622 0.0459865
 5084.32778 1.1869662 0.0451295
 5089.39838 1.2138879 0.0444700
 5094.49155 1.2534907 0.0439301
 5099.58471 1.2960443 0.0432977
 5104.67787 1.3358556 0.0428206
 5109.79304 1.3588169 0.0420653
 5114.90876 1.4141048 0.0417287
 5120.02447 1.4582160 0.0413155
 5125.14019 1.4880551 0.0409720
 5130.25591 1.5500909 0.0405430
 5135.39419 1.5873027 0.0402249
 5140.53247 1.6244552 0.0400738
 5145.67074 1.6510551 0.0398161
 5150.80902 1.6856890 0.0397875
 5155.96931 1.7400345 0.0393429
 5161.13014 1.7909389 0.0392294
 5166.29098 1.8212732 0.0388991
 5171.45181 1.8602268 0.0386900
 5176.61265 1.8707807 0.0380634
 5181.79604 1.8804129 0.0378923
 5186.97888 1.8783610 0.0375990
 5192.16228 1.8624430 0.0374874
 5197.36823 1.8749717 0.0370033
 5202.55162 1.8705715 0.0369275
 5207.75757 1.8522924 0.0366696
 5212.96297 1.8489715 0.0365480
 5218.19148 1.8614531 0.0360025
 5223.39743 1.8623941 0.0358439
 5228.62594 1.8533283 0.0355211
 5233.85390 1.8539582 0.0353247
 5239.08241 1.8533719 0.0347301
 5244.33348 1.8372889 0.0345827
 5249.56144 1.8225729 0.0342979
 5254.81251 1.8265072 0.0340946
 5260.08613 1.8219820 0.0333951
 5265.33665 1.8218766 0.0331170
 5270.61027 1.8116891 0.0328446
 5275.86134 1.8048413 0.0325219
 5281.15697 1.7946303 0.0322281
 5286.43060 1.7952880 0.0321134
 5291.72678 1.7791629 0.0322145
 5296.99986 1.7599031 0.0321901
 5302.29604 1.7349842 0.0322070
 5307.61423 1.7192649 0.0322291
 5312.91042 1.6834627 0.0324550
 5318.22861 1.6603459 0.0322943
 5323.54735 1.6303285 0.0325151
 5328.86609 1.6276273 0.0326835
 5334.20684 1.5921638 0.0325813
 5339.52558 1.5594442 0.0323219
 5344.86633 1.5297638 0.0320548
 5350.23019 1.5092069 0.0318617
 5355.57094 1.4848236 0.0312777
 5360.93479 1.4522110 0.0310632
 5366.27554 1.4245631 0.0308994
 5371.66196 1.3930848 0.0303717
 5377.02527 1.3597862 0.0302874
 5382.41168 1.3519045 0.0300700
 5387.79755 1.3519615 0.0298044
 5393.18341 1.3433729 0.0298163
 5398.56983 1.3318020 0.0296892
 5403.97825 1.3173355 0.0297205
 5409.36467 1.3017306 0.0294263
 5414.77309 1.2712083 0.0295205
 5420.20407 1.2596008 0.0296727
 5425.61304 1.2561049 0.0294709
 5431.04403 1.2447103 0.0296482
 5436.47556 1.2397147 0.0296135
 5441.90654 1.2446551 0.0295729
 5447.36008 1.2387005 0.0297080
 5452.79161 1.2374170 0.0296361
 5458.24515 1.2256099 0.0294849
 5463.72125 1.2252767 0.0294855
 5469.17534 1.2162904 0.0293000
 5474.65143 1.2153752 0.0290353
 5480.12753 1.2035851 0.0288336
 5485.60363 1.1816159 0.0288176
 5491.08028 1.1662484 0.0285425
 5496.57893 1.1610820 0.0283340
 5502.07759 1.1573857 0.0280289
 5507.57624 1.1701962 0.0279490
 5513.07545 1.1691939 0.0277390
 5518.59666 1.1710892 0.0274937
 5524.11787 1.1712029 0.0274696
 5529.63909 1.1748407 0.0273320
 5535.16030 1.1894478 0.0272229
 5540.70462 1.1966090 0.0273596
 5546.24839 1.2083282 0.0273173
 5551.79216 1.2459093 0.0272429
 5557.33594 1.2446846 0.0273387
 5562.90227 1.2503622 0.0270083
 5568.46860 1.2640991 0.0270292
 5574.03492 1.2815074 0.0270515
 5579.60180 1.2958019 0.0269120
 5585.19069 1.3090791 0.0268089
 5590.77958 1.3194535 0.0268840
 5596.36847 1.3259073 0.0267906
 5601.95735 1.3464156 0.0267359
 5607.56880 1.3753279 0.0266661
 5613.18025 1.3885136 0.0265720
 5618.79169 1.4301827 0.0263409
 5624.40314 1.4696060 0.0259045
 5630.03714 1.5062616 0.0258049
 5635.67114 1.5464388 0.0253249
 5641.30515 1.5882702 0.0252381
 5646.93915 1.6179007 0.0249684
 5652.59571 1.6573466 0.0246127
 5658.22972 1.6870084 0.0246327
 5663.88628 1.7062491 0.0243542
 5669.56540 1.7361692 0.0244266
 5675.22196 1.7592493 0.0241377
 5680.90108 1.7794549 0.0239804
 5686.58020 1.8096620 0.0238732
 5692.28187 1.8389266 0.0237811
 5697.96044 1.8489612 0.0238571
 5703.66212 1.8571560 0.0235745
 5709.36380 1.8677552 0.0234732
 5715.08803 1.8878405 0.0234288
 5720.78971 1.8853770 0.0237448
 5726.51395 1.9033045 0.0237716
 5732.23818 1.9095758 0.0234082
 5737.96187 1.9067359 0.0232812
 5743.70866 1.9027787 0.0234727
 5749.45546 1.8842105 0.0237342
 5755.20225 1.8736815 0.0238557
 5760.97160 1.8660845 0.0242237
 5766.71784 1.8432119 0.0243396
 5772.48720 1.8586127 0.0241397
 5778.25655 1.8567313 0.0241742
 5784.04846 1.8482087 0.0235601
 5789.81726 1.8451622 0.0230428
 5795.60917 1.8404427 0.0227012
 5801.40108 1.8365149 0.0219711
 5807.21555 1.8149571 0.0214399
 5813.02946 1.7986579 0.0209950
 5818.82137 1.7980288 0.0206153
 5824.65840 1.7821176 0.0205170
 5830.47232 1.7710874 0.0206622
 5836.30934 1.7611693 0.0207041
 5842.14637 1.7536781 0.0202246
 5847.98284 1.7352690 0.0202188
 5853.84243 1.7193497 0.0202429
 5859.67890 1.7042974 0.0201155
 5865.53849 1.6866733 0.0200470
 5871.42063 1.6730042 0.0200900
 5877.27966 1.6529859 0.0197881
 5883.16180 1.6515632 0.0195814
 5889.04339 1.6367347 0.0195315
 5894.94809 1.6293693 0.0192210
 5900.82969 1.6200835 0.0190694
 5906.73439 1.6121937 0.0189801
 5912.63853 1.5981662 0.0189251
 5918.54323 1.5840334 0.0188744
 5924.46994 1.5835190 0.0187999
 5930.39720 1.5777506 0.0187223
 5936.32391 1.5547054 0.0186224
 5942.27372 1.5406399 0.0185362
 5948.20043 1.5126542 0.0183673
 5954.15025 1.4761668 0.0184414
 5960.09951 1.4231801 0.0184431
 5966.07189 1.3618761 0.0183693
 5972.04371 1.2805628 0.0184557
 5978.01553 1.2030253 0.0186627
 5983.98791 1.1279553 0.0187505
 5989.98229 1.0398694 0.0186888
 5995.95466 0.9689892 0.0187441
 6001.94904 0.9052753 0.0188931
 6007.96598 0.8554485 0.0187715
 6013.96092 0.8090500 0.0187485
 6019.97786 0.7913862 0.0187234
 6025.99480 0.7847894 0.0186968
 6032.03484 0.7925994 0.0186355
 6038.05178 0.8166999 0.0185651
 6044.09128 0.8416244 0.0185055
 6050.15334 0.8799343 0.0183360
 6056.19338 0.9173614 0.0183967
 6062.25544 0.9661192 0.0183282
 6068.31750 1.0078628 0.0182660
 6074.37955 1.0279398 0.0181084
 6080.46472 1.0651872 0.0180755
 6086.54933 1.1013104 0.0181483
 6092.63394 1.1434988 0.0180914
 6098.71856 1.1955907 0.0179204
 6104.82573 1.2320703 0.0178726
 6110.91089 1.2887554 0.0178192
 6117.04062 1.3358665 0.0179023
 6123.14779 1.3826360 0.0177346
 6129.27752 1.4381036 0.0176672
 6135.40725 1.4940175 0.0175809
 6141.53698 1.5521119 0.0174728
 6147.68927 1.5944396 0.0173954
 6153.81900 1.6413296 0.0178517
 6159.97129 1.6752506 0.0174311
 6166.14613 1.7095391 0.0172199
 6172.29897 1.7272267 0.0172875
 6178.47382 1.7284583 0.0174152
 6184.64866 1.7211161 0.0176770
 6190.84607 1.7029837 0.0179466
 6197.04347 1.7103502 0.0182744
 6203.24088 1.7356116 0.0184189
 6209.43828 1.7573352 0.0183620
 6215.63568 1.8032224 0.0182779
 6221.85565 1.8445745 0.0181624
 6228.07561 1.8891377 0.0179842
 6234.31758 1.9318345 0.0177627
 6240.53754 1.9809283 0.0174241
 6246.78006 2.0381219 0.0172864
 6253.04514 2.0860341 0.0170991
 6259.28766 2.1355188 0.0169847
 6265.55273 2.1755562 0.0170735
 6271.81781 2.2224793 0.0172294
 6278.08289 2.2323349 0.0166467
 6284.37053 2.2268214 0.0163886
 6290.65761 2.2207010 0.0162444
 6296.94525 2.1975400 0.0161228
 6303.23288 2.1775265 0.0160159
 6309.54308 2.1559007 0.0160480
 6315.85327 2.1380818 0.0159766
 6322.16347 2.1348567 0.0158079
 6328.49567 2.1171412 0.0157442
 6334.82842 2.1040349 0.0156941
 6341.16117 2.0838723 0.0156627
 6347.49392 2.0620425 0.0157376
 6353.84868 2.0413868 0.0156262
 6360.20399 2.0095279 0.0155759
 6366.55930 1.9964031 0.0154732
 6372.91406 1.9737068 0.0154961
 6379.29193 1.9537375 0.0155174
 6385.66980 1.9392234 0.0155440
 6392.06967 1.9211529 0.0155391
 6398.44754 1.9008930 0.0155122
 6404.84797 1.8867525 0.0154729
 6411.27040 1.8823744 0.0154274
 6417.67083 1.8717517 0.0153561
 6424.09381 1.8665773 0.0152601
 6430.51625 1.8627481 0.0150734
 6436.93923 1.8650596 0.0149970
 6443.38422 1.8766056 0.0150183
 6449.82976 1.8809636 0.0149583
 6456.27531 1.8824080 0.0149286
 6462.74286 1.8821671 0.0149404
 6469.18840 1.8771776 0.0149776
 6475.65595 1.8687963 0.0150413
 6482.14661 1.8620241 0.0154898
 6488.61416 1.8690839 0.0160487
 6495.10482 1.8514327 0.0149446
 6501.61748 1.8540322 0.0149158
 6508.10814 1.8576781 0.0151827
 6514.62081 1.8543350 0.0155640
 6521.13347 1.8579135 0.0160108
 6527.64669 1.8567730 0.0164820
 6534.18191 1.8516829 0.0169155
 6540.71769 1.8604751 0.0172288
 6547.25291 1.8585582 0.0173427
 6553.81069 1.8584594 0.0171283
 6560.36902 1.8681887 0.0166864
 6566.92681 1.8846980 0.0162755
 6573.48459 1.9003413 0.0158343
 6580.06548 1.9172798 0.0154311
 6586.64582 1.9303240 0.0151264
 6593.22616 1.9470851 0.0149901
 6599.82961 1.9620363 0.0152609
 6606.43250 1.9694386 0.0162271
 6613.03540 1.9802185 0.0156817
 6619.63885 1.9872351 0.0152448
 6626.26431 1.9896561 0.0150710
 6632.88976 1.9842688 0.0150768
 6639.51522 1.9695944 0.0151450
 6646.16323 1.9507170 0.0150979
 6652.81180 1.9296484 0.0150430
 6659.45981 1.9110903 0.0149765
 6666.13038 1.8814178 0.0149116
 6672.77840 1.8500108 0.0148517
 6679.44897 1.8206187 0.0148000
 6686.14265 1.8000036 0.0147513
 6692.83578 1.7740043 0.0146127
 6699.52891 1.7593399 0.0145823
 6706.22204 1.7441880 0.0145506
 6712.93773 1.7374955 0.0145203
 6719.63086 1.7317537 0.0145073
 6726.36910 1.7196392 0.0145096
 6733.08479 1.7167809 0.0145075
 6739.82304 1.7268043 0.0144210
 6746.56128 1.7299255 0.0144213
 6753.29953 1.7270623 0.0144173
 6760.06034 1.7370203 0.0144191
 6766.82114 1.7457663 0.0145139
 6773.58194 1.7643350 0.0145233
 6780.36531 1.7780505 0.0145382
 6787.14867 1.7993538 0.0144604
 6793.93203 1.8050551 0.0144712
 6800.71539 1.8137556 0.0144750
 6807.52131 1.8160928 0.0144775
 6814.32723 1.8314108 0.0144647
 6821.15571 1.8261192 0.0143493
 6827.96163 1.8325998 0.0144050
 6834.79011 1.8255910 0.0143699
 6841.64115 1.8250167 0.0143341
 6848.46907 1.8208643 0.0143093
 6855.32011 1.8077734 0.0142002
 6862.17115 1.8086883 0.0141731
 6869.04474 1.8082556 0.0141502
 6875.91834 1.7959827 0.0141372
 6882.79138 1.7974107 0.0142057
 6889.66497 1.8029729 0.0141005
 6896.56113 1.8068136 0.0140827
 6903.45728 1.8143685 0.0140706
 6910.35343 1.8164673 0.0140623
 6917.27159 1.8287795 0.0139736
 6924.19030 1.8332129 0.0140573
 6931.10901 1.8421134 0.0140530
 6938.04973 1.8561705 0.0140435
 6944.99100 1.8606265 0.0139495
 6951.93227 1.8590578 0.0139383
 6958.87298 1.8630269 0.0140004
 6965.83681 1.8634887 0.0139875
 6972.80064 1.8647585 0.0138991
 6979.78647 1.8635685 0.0139015
 6986.75030 1.8611672 0.0139072
 6993.73668 1.8564790 0.0139170
 7000.74508 1.8529861 0.0139239
 7007.75402 1.8400735 0.0139346
 7014.73985 1.8425356 0.0139307
 7021.77135 1.8309309 0.0138324
 7028.77974 1.8169533 0.0138968
 7035.81124 1.8035268 0.0138767
 7042.84220 1.7980036 0.0137799
 7049.89625 1.7947243 0.0137676
 7056.94976 1.7924930 0.0138498
 7064.00382 1.7817436 0.0137614
 7071.05733 1.7738544 0.0137492
 7078.13395 1.7571390 0.0137523
 7085.21001 1.7516943 0.0137635
 7092.30919 1.7389922 0.0137666
 7099.38525 1.7323543 0.0137676
 7106.48388 1.7185646 0.0136859
 7113.60561 1.7140324 0.0137538
 7120.70423 1.7011465 0.0137407
 7127.82597 1.6871063 0.0136536
 7134.96971 1.6753509 0.0137192
 7142.09089 1.6554528 0.0136272
 7149.23518 1.6528220 0.0136112
 7156.40148 1.6342897 0.0136067
 7163.54522 1.6284003 0.0136063
 7170.71152 1.6320512 0.0136057
 7177.87837 1.6235040 0.0136958
 7185.06722 1.6188288 0.0139320
 7192.25608 1.6153268 0.0137025
 7199.44493 1.6101224 0.0135992
 7206.63434 1.6068647 0.0137912
 7213.84576 1.6023896 0.0139633
 7221.05717 1.6028287 0.0140857
 7228.29114 1.6000510 0.0144006
 7235.50256 1.6042238 0.0144861
 7242.73708 1.6009588 0.0146198
 7249.99361 1.5967817 0.0146830
 7257.22758 1.5822544 0.0146605
 7264.50667 1.5768358 0.0144479
 7271.76320 1.5743837 0.0143757
 7279.04229 1.5819809 0.0141777
 7286.32138 1.5851756 0.0139520
 7293.60047 1.5847491 0.0137755
 7300.90211 1.5948100 0.0135711
 7308.20376 1.5905914 0.0136219
 7315.50541 1.5894941 0.0136969
 7322.82961 1.5980667 0.0138786
 7330.15382 1.6031531 0.0135532
 7337.47802 1.6054841 0.0135565
 7344.80222 1.5999767 0.0135579
 7352.14899 1.5970266 0.0135503
 7359.51831 1.5954852 0.0134986
 7366.86507 1.5953872 0.0135289
 7374.23439 1.5855396 0.0134320
 7381.60371 1.5902472 0.0135056
 7388.99559 1.5890464 0.0134507
 7396.38747 1.5915297 0.0135548
 7403.77935 1.6105936 0.0134945
 7411.19378 1.6267717 0.0135142
 7418.58511 1.6389463 0.0135377
 7426.02211 1.6483597 0.0135521
 7433.43654 1.6534725 0.0135521
 7440.87354 1.6628973 0.0135429
 7448.31053 1.6685350 0.0135230
 7455.76954 1.6730809 0.0134128
 7463.22909 1.6748110 0.0134602
 7470.68864 1.6788158 0.0133548
 7478.14819 1.6746081 0.0134074
 7485.62975 1.6717148 0.0133247
 7493.11186 1.6640460 0.0134097
 7500.61653 1.6601722 0.0133753
 7508.12120 1.6517414 0.0133045
 7515.62532 1.6472648 0.0132991
 7523.12999 1.6548005 0.0132959
 7530.65722 1.6504064 0.0132943
 7538.18389 1.6570854 0.0132827
 7545.73368 1.6592550 0.0135080
 7553.28291 1.6609330 0.0133976
 7560.83270 1.6637560 0.0131932
 7568.38248 1.6550107 0.0132094
 7575.95427 1.6461623 0.0133285
 7583.52662 1.6393902 0.0135056
 7591.12097 1.6309965 0.0136691
 7598.71587 1.6166687 0.0138253
 7606.31022 1.6138614 0.0139467
 7613.92768 1.6148192 0.0140181
 7621.54459 1.6090896 0.0140187
 7629.16205 1.6109818 0.0138644
 7636.77895 1.6119975 0.0138415
 7644.41897 1.6113642 0.0136106
 7652.05844 1.6227745 0.0134519
 7659.72046 1.6333709 0.0133863
 7667.38304 1.6399497 0.0132087
 7675.04506 1.6584771 0.0131824
 7682.73019 1.6700208 0.0131771
 7690.39222 1.6857584 0.0135670
 7698.09936 1.6943198 0.0133707
 7705.78449 1.7040491 0.0132457
 7713.49163 1.7059758 0.0133324
 7721.22133 1.7085394 0.0132698
 7728.92902 1.7008675 0.0132965
 7736.65872 1.6965469 0.0132961
 7744.38842 1.6944546 0.0132818
 7752.14068 1.6987090 0.0132767
 7759.89348 1.6905497 0.0132790
 7767.66830 1.6774089 0.0132165
 7775.42056 1.6684395 0.0132978
 7783.19537 1.6607776 0.0133309
 7790.99274 1.6516986 0.0132925
 7798.76811 1.6489223 0.0133182
 7806.56548 1.6401981 0.0134182
 7814.38541 1.6237273 0.0133783
 7822.20534 1.6167035 0.0133847
 7830.02527 1.5971644 0.0133793
 7837.84521 1.5886291 0.0133118
 7845.68769 1.5751303 0.0133916
 7853.53018 1.5730294 0.0133842
 7861.39578 1.5567580 0.0133932
 7869.26083 1.5440181 0.0133284
 7877.12587 1.5381153 0.0133420
 7884.99092 1.5415643 0.0134210
 7892.87853 1.5504014 0.0133553
 7900.76613 1.5560354 0.0133785
 7908.67629 1.5579423 0.0134097
 7916.58646 1.5667862 0.0134471
 7924.49662 1.5727593 0.0134133
 7932.42879 1.5908309 0.0134596
 7940.36151 1.6035697 0.0135770
 7948.29423 1.6099260 0.0136197
 7956.24951 1.6106704 0.0136758
 7964.20479 1.6042284 0.0136568
 7972.18263 1.6102765 0.0136841
 7980.13791 1.6145370 0.0137115
 7988.11574 1.6171067 0.0137470
 7996.11559 1.6201749 0.0137000
 8004.11598 1.6157764 0.0137861
 8012.11638 1.6002842 0.0138051
 8020.11677 1.5890276 0.0138190
 8028.13973 1.5784053 0.0138305
 8036.16213 1.5643826 0.0138396
 8044.20764 1.5514600 0.0139948
 8052.25315 1.5374258 0.0139282
 8060.32067 1.5137483 0.0137789
 8068.36618 1.4996746 0.0137855
 8076.43425 1.4783770 0.0138830
 8084.52433 1.4706405 0.0140236
 8092.59240 1.4546920 0.0141152
 8100.68302 1.4257522 0.0142753
 8108.79566 1.4146094 0.0144201
 8116.90884 1.3955083 0.0145504
 8125.02203 1.3897063 0.0145902
 8133.15722 1.3835610 0.0145870
 8141.27041 1.3757657 0.0145450
 8149.42816 1.3772447 0.0144693
 8157.56390 1.3707505 0.0143815
 8165.72165 1.3600882 0.0142281
 8173.90251 1.3561091 0.0141762
 8182.06026 1.3573762 0.0141292
 8190.24112 1.3625945 0.0142029
 8198.44399 1.3688308 0.0144944
 8206.64740 1.3742934 0.0145103
 8214.85027 1.3832687 0.0144391
 8223.07625 1.3955075 0.0145317
 8231.27911 1.4047222 0.0146219
 8239.52710 1.4208294 0.0147159
 8247.75307 1.4317193 0.0147904
 8256.00105 1.4400651 0.0148537
 8264.27160 1.4587849 0.0149235
 8272.52013 1.4598742 0.0150129
 8280.81323 1.4695898 0.0151120
 8289.08377 1.4814039 0.0153187
 8297.37742 1.4919016 0.0153683
 8305.67052 1.5010189 0.0153131
 8313.98617 1.5143687 0.0155262
 8322.27927 1.5147735 0.0159246
 8330.61804 1.5285151 0.0164722
 8338.93370 1.5374752 0.0169064
 8347.29447 1.5367632 0.0174279
 8355.63268 1.5475184 0.0178991
 8363.99346 1.5599499 0.0182739
 8372.35478 1.5662777 0.0184903
 8380.71555 1.5490122 0.0185595
 8389.09889 1.5392640 0.0184668
 8397.50477 1.5442674 0.0182517
 8405.88811 1.5347594 0.0179378
 8414.29400 1.5295935 0.0176052
 8422.72244 1.5235808 0.0173211
 8431.12833 1.5182987 0.0171237
 8439.57934 1.5097616 0.0170961
 8448.00778 1.5084670 0.0172771
 8456.45879 1.5055468 0.0170745
 8464.90979 1.5016834 0.0167768
 8473.38336 1.4980294 0.0166170
 8481.85692 1.4810270 0.0164511
 8490.33048 1.4664935 0.0163530
 8498.82661 1.4545507 0.0160674
 8507.32273 1.4441117 0.0158186
 8515.84141 1.4421448 0.0155965
 8524.33753 1.4251140 0.0153832
 8532.87876 1.4059393 0.0151601
 8541.39744 1.3828650 0.0149553
 8549.93813 1.3730607 0.0147236
 8558.50193 1.3745222 0.0144870
 8567.06572 1.3613416 0.0142597
 8575.62952 1.3697315 0.0140338
 8584.19331 1.3750111 0.0138192
 8592.77912 1.3691341 0.0136111
 8601.38803 1.3707062 0.0134014
 8609.97438 1.3645612 0.0132070
 8618.58329 1.3594176 0.0130282
 8627.21421 1.3632675 0.0128565
 8635.84568 1.3609395 0.0126329
 8644.47715 1.3594691 0.0125112
 8653.10807 1.3645102 0.0124167
 8661.76210 1.3696353 0.0122732
 8670.43868 1.3775907 0.0121619
 8679.11472 1.3867218 0.0120609
 8687.79130 1.3916472 0.0122597
 8696.46734 1.4067683 0.0119553
 8705.16648 1.4205909 0.0117711
 8713.86508 1.4315851 0.0117204
 8722.58678 1.4500551 0.0117503
 8731.30793 1.4541831 0.0117425
 8740.05219 1.4648093 0.0117968
 8748.77334 1.4703666 0.0118829
 8757.54016 1.4718601 0.0120690
 8766.28387 1.4768203 0.0124359
 8775.05068 1.4817307 0.0121305
 8783.83951 1.4883296 0.0118796
 8792.62888 1.4973440 0.0119123
 8801.41771 1.4903787 0.0119703
 8810.20654 1.4889379 0.0121481
 8819.01847 1.4795136 0.0122529
 8827.85241 1.4704682 0.0123202
 8836.66379 1.4655269 0.0123666
 8845.52084 1.4571037 0.0124394
 8854.35478 1.4362622 0.0124938
 8863.21128 1.4217418 0.0120940
 8872.06833 1.4054300 0.0117850
 8880.94739 1.3837380 0.0115169
 8889.82645 1.3664972 0.0112434
 8898.72806 1.3523679 0.0109172
 8907.60767 1.3360313 0.0107339
 8916.53185 1.3220435 0.0106664
 8925.43346 1.3111358 0.0108075
 8934.35763 1.3042015 0.0108219
 8943.30437 1.2957149 0.0104954
 8952.25110 1.2839952 0.0103703
 8961.19783 1.2810739 0.0103251
 8970.16767 1.2755646 0.0102945
 8979.13696 1.2727427 0.0103080
 8988.10625 1.2747633 0.0102247
 8997.09810 1.2687281 0.0101991
 9006.08994 1.2704445 0.0101774
 9015.10435 1.2752236 0.0101812
 9024.11875 1.2841804 0.0101092
 9033.13316 1.2898782 0.0101281
 9042.17012 1.2923090 0.0101160
 9051.20709 1.3024300 0.0101052
 9060.26661 1.3161515 0.0100451
 9069.32613 1.3304543 0.0100239
 9078.40766 1.3399661 0.0100033
 9087.46718 1.3434906 0.0099937
 9096.57182 1.3501660 0.0099953
 9105.67646 1.3558677 0.0099534
 9114.78109 1.3547245 0.0099318
 9123.88573 1.3661910 0.0098762
 9133.01238 1.3735325 0.0099250
 9142.13957 1.3798177 0.0099218
 9151.28933 1.3811213 0.0098622
 9160.43908 1.3762555 0.0098548
 9169.58883 1.3661630 0.0099017
 9178.76060 1.3611716 0.0098561
 9187.95547 1.3638262 0.0099499
 9197.12778 1.3609773 0.0100292
 9206.34466 1.3548360 0.0100679
 9215.53952 1.3610812 0.0097910
 9224.75695 1.3632426 0.0098223
 9233.97438 1.3732848 0.0099268
 9243.21327 1.3635088 0.0101880
 9252.45325 1.3604236 0.0104025
 9261.71635 1.3534725 0.0105619
 9270.97834 1.3403651 0.0107705
 9280.24033 1.3285927 0.0108371
 9289.52543 1.3075418 0.0107049
 9298.81054 1.2965882 0.0105932
 9308.11765 1.2685726 0.0104145
 9317.42476 1.2561311 0.0101568
 9326.73187 1.2318947 0.0098976
 9336.06208 1.2047521 0.0096397
 9345.41431 1.1802293 0.0094674
 9354.74453 1.1583275 0.0093115
 9364.11986 1.1393650 0.0094882
 9373.47209 1.1199474 0.0096254
 9382.84742 1.1017499 0.0093851
 9392.22165 1.0853741 0.0092227
 9401.61900 1.0633684 0.0092044
 9411.01744 1.0496972 0.0092323
 9420.43679 1.0316281 0.0092352
 9429.85724 1.0200211 0.0092376
 9439.29970 1.0031831 0.0092248
 9448.72015 0.9905222 0.0092146
 9458.18461 0.9790823 0.0091559
 9467.62707 0.9645977 0.0089841
 9477.09264 0.9599931 0.0088767
 9486.58021 0.9492877 0.0087232
 9496.06778 0.9515089 0.0086189
 9505.55536 0.9468324 0.0084535
 9515.06604 0.9438295 0.0083619
 9524.57562 0.9371961 0.0082772
 9534.10831 0.9374398 0.0082364
 9543.64100 0.9406486 0.0082317
 9553.19680 0.9418524 0.0081794
 9562.75150 0.9382039 0.0080342
 9572.30729 0.9387543 0.0079807
 9581.88510 0.9305757 0.0078844
 9591.46291 0.9349602 0.0078619
 9601.06272 0.9397953 0.0077478
 9610.66363 0.9402230 0.0077354
 9620.26345 0.9489679 0.0076648
 9629.88637 0.9620517 0.0076260
 9639.50929 0.9733727 0.0076145
 9649.15532 0.9812140 0.0076105
 9658.80025 0.9911491 0.0076243
 9668.46829 1.0007799 0.0076319
 9678.13633 1.0161277 0.0076882
 9687.80437 1.0330507 0.0076718
 9697.49441 1.0454890 0.0077535
 9707.20757 1.0549495 0.0077753
 9716.89871 1.0710651 0.0078701
 9726.63387 1.0821064 0.0078623
 9736.34703 1.0906756 0.0078934
 9746.08219 1.0950058 0.0079204
 9755.84046 1.1019553 0.0079217
 9765.59873 1.1119215 0.0079184
 9775.35700 1.1242036 0.0079287
 9785.13728 1.1283569 0.0079060
 9794.91756 1.1430539 0.0079531
 9804.72094 1.1528116 0.0079261
 9814.52433 1.1609561 0.0079090
 9824.32772 1.1632305 0.0078857
 9834.15311 1.1662083 0.0078588
 9844.00161 1.1716754 0.0078487
 9853.82701 1.1723412 0.0078242
 9863.69752 1.1725810 0.0077490
 9873.54602 1.1675364 0.0076775
 9883.41653 1.1562599 0.0076091
 9893.31015 1.1408360 0.0075118
 9903.20376 1.1256576 0.0074856
 9913.11939 1.1118728 0.0073802
 9923.01301 1.0962883 0.0073197
 9932.95064 1.0779867 0.0073095
 9942.88938 1.0667033 0.0072185
 9952.82811 1.0550218 0.0071762
 9962.76575 1.0434610 0.0071200
 9972.74960 1.0306925 0.0071008
 9982.71034 1.0166425 0.0070464
 9992.69419 1.0006810 0.0070055
 10002.70005 0.9887107 0.0070235
 10012.68390 0.9752444 0.0069745
 10022.71176 0.9711918 0.0069600
 10032.71762 0.9623725 0.0069575
 10042.76859 0.9508953 0.0069557
 10052.79756 0.9420517 0.0069469
 10062.87164 0.9307666 0.0069226
 10072.92262 0.9194177 0.0068627
 10082.99560 0.9066728 0.0068555
 10093.09169 0.9017220 0.0068013
 10103.16577 0.8963416 0.0067153
 10113.28387 0.8903120 0.0066492
 10123.37996 0.8801352 0.0066197
 10133.52117 0.8782692 0.0065427
 10143.64037 0.8735722 0.0065093
 10153.78157 0.8693564 0.0065288
 10163.94479 0.8656574 0.0064733
 10174.10910 0.8632346 0.0064216
 10184.29542 0.8656230 0.0064035
 10194.45864 0.8684640 0.0064188
 10204.66807 0.8747702 0.0064701
 10214.87640 0.8844073 0.0065597
 10225.08583 0.8910140 0.0065597
 10235.31617 0.9003507 0.0066226
 10245.54760 0.9133848 0.0066738
 10255.80215 0.9216577 0.0067748
 10266.05560 0.9349382 0.0068808
 10276.31014 0.9493951 0.0069979
 10286.58560 0.9673415 0.0070553
 10296.88526 0.9805554 0.0071644
 10307.18382 0.9961403 0.0071790
 10317.48349 1.0075362 0.0072106
 10327.80406 1.0197515 0.0071943
 10338.12573 1.0294935 0.0071805
 10348.47050 1.0370580 0.0071573
 10358.81418 1.0546659 0.0070794
 10369.18097 1.0659273 0.0069726
 10379.54666 1.0694287 0.0068537
 10389.93655 1.0759506 0.0067913
 10400.32534 1.0848122 0.0067848
 10410.71414 1.0887878 0.0067427
 10421.12604 1.0905463 0.0066387
 10431.55995 1.0957932 0.0065232
 10441.99496 1.0972178 0.0065197
 10452.42887 1.0923680 0.0064583
 10462.88589 1.0877924 0.0063091
 10473.34181 1.0791079 0.0062476
 10483.82084 1.0793803 0.0062234
 10494.30096 1.0714755 0.0062170
 10504.80200 1.0651017 0.0061884
 10515.30413 1.0591277 0.0062176
 10525.82827 1.0492740 0.0062487
 10536.33041 1.0419625 0.0062610
 10546.87656 1.0281821 0.0062289
 10557.42381 1.0256679 0.0062047
 10567.99307 1.0115809 0.0061707
 10578.56233 0.9974897 0.0061080
 10589.13159 0.9871605 0.0060164
 10599.72395 0.9785982 0.0059239
 10610.31632 0.9674281 0.0058480
 10620.93069 0.9548978 0.0057867
 10631.54507 0.9492827 0.0057327
 10642.18145 0.9332364 0.0057250
 10652.84094 0.9218886 0.0057245
 10663.47842 0.9133282 0.0056424
 10674.13792 0.9051126 0.0056324
 10684.82051 0.8992964 0.0056283
 10695.50201 0.8863433 0.0056167
 10706.20662 0.8792921 0.0056282
 10716.91123 0.8744162 0.0056476
 10727.63894 0.8700402 0.0056688
 10738.34355 0.8670872 0.0057011
 10749.09327 0.8644213 0.0057064
 10759.84189 0.8665789 0.0057709
 10770.61472 0.8608366 0.0058307
 10781.38645 0.8633408 0.0057865
 10792.15928 0.8610356 0.0057433
 10802.95412 0.8607273 0.0057692
 10813.74896 0.8589097 0.0058640
 10824.56581 0.8590646 0.0059646
 10835.38266 0.8582152 0.0060240
 10846.22261 0.8516012 0.0060926
 10857.08567 0.8529001 0.0062354
 10867.94764 0.8509952 0.0063794
 10878.80960 0.8427362 0.0065714
 10889.67266 0.8334416 0.0066297
 10900.57974 0.8256811 0.0067115
 10911.46481 0.8186066 0.0067794
 10922.37189 0.8152110 0.0067356
 10933.30208 0.8117512 0.0066894
 10944.23226 0.8082875 0.0066786
 10955.18446 0.8048010 0.0067138
 10966.13665 0.8011764 0.0067136
 10977.11196 0.8033230 0.0067073
 10988.08726 0.8078034 0.0066523
 10999.06256 0.7955132 0.0065966
 11010.08188 0.7941427 0.0065442
 11021.08029 0.7917914 0.0064626
 11032.09961 0.7868236 0.0064211
 11043.14314 0.7794632 0.0063151
 11054.18556 0.7750604 0.0062182
 11065.22799 0.7718912 0.0061425
 11076.31553 0.7647759 0.0059881
 11087.38107 0.7605064 0.0059401
 11098.46861 0.7571722 0.0058245
 11109.57926 0.7506955 0.0057850
 11120.66680 0.7451255 0.0057236
 11131.79946 0.7418885 0.0056249
 11142.93212 0.7376581 0.0055566
 11154.06478 0.7333638 0.0055373
 11165.22055 0.7307621 0.0055511
 11176.39832 0.7272053 0.0055512
 11187.57610 0.7287627 0.0055768
 11198.75387 0.7279257 0.0056155
 11209.95476 0.7196014 0.0056061
 11221.17765 0.7242471 0.0055773
 11232.40054 0.7219105 0.0055591
 11243.62343 0.7160531 0.0055624
 11254.86833 0.7144986 0.0056099
 11266.11433 0.7122378 0.0055786
 11277.38233 0.7105830 0.0055512
 11288.67235 0.7073574 0.0054978
 11299.96346 0.7087206 0.0055914
 11311.25348 0.7084380 0.0056450
 11322.56660 0.7046359 0.0056129
 11333.87972 0.7038227 0.0056141
 11345.21486 0.7012732 0.0056807
 11356.57309 0.6975165 0.0057589
 11367.93133 0.6931375 0.0059028
 11379.31268 0.6924177 0.0061556
 11390.67092 0.6892362 0.0064689
 11402.07428 0.6903188 0.0068269
 11413.47653 0.6974307 0.0070396
 11424.87989 0.6982921 0.0071655
 11436.30635 0.6961871 0.0071976
 11447.75372 0.6951600 0.0071785
 11459.20219 0.6894354 0.0070487
 11470.65066 0.6915016 0.0069951
 11482.12114 0.6939829 0.0065917
 11493.61473 0.6959340 0.0062002
 11505.10832 0.6978947 0.0059119
 11516.60190 0.7020921 0.0059001
 11528.11750 0.7052615 0.0058532
 11539.65620 0.7028835 0.0057806
 11551.19490 0.6990570 0.0057626
 11562.75562 0.6952382 0.0058789
 11574.31633 0.6915361 0.0058987
 11585.87704 0.6868021 0.0060654
 11597.48396 0.6862385 0.0061175
 11609.06668 0.6834342 0.0062338
 11620.67361 0.6833811 0.0061509
 11632.30145 0.6842421 0.0062187
 11643.93038 0.6793645 0.0061554
 11655.58132 0.6723866 0.0062259
 11667.23227 0.6720332 0.0063057
 11678.90632 0.6658365 0.0064569
 11690.57927 0.6670935 0.0066000
 11702.27643 0.6620380 0.0065358
 11713.97249 0.6597314 0.0065016
 11725.69056 0.6538155 0.0064631
 11737.40972 0.6429157 0.0065514
 11749.15090 0.6402706 0.0066132
 11760.91518 0.6334663 0.0066840
 11772.65636 0.6242930 0.0066344
 11784.44265 0.6239928 0.0065874
 11796.22894 0.6205747 0.0065877
 11808.01523 0.6153546 0.0068002
 11819.82353 0.6109254 0.0067624
 11831.65494 0.6091682 0.0068235
 11843.48635 0.6078890 0.0068666
 11855.31775 0.6060227 0.0068627
 11867.17227 0.6036222 0.0068059
 11879.04879 0.6008943 0.0068110
 11890.92531 0.6008838 0.0067393
 11902.82385 0.6001733 0.0067194
 11914.72348 0.5997242 0.0067357
 11926.64402 0.5958624 0.0066556
 11938.56566 0.5946947 0.0065638
 11950.51040 0.5883857 0.0063070
 11962.45405 0.5840131 0.0061872
 11974.42081 0.5813861 0.0062223
 11986.38756 0.5771425 0.0066788
 11998.37633 0.5768894 0.0066324
 12010.38820 0.5778140 0.0065835
 12022.40007 0.5753735 0.0066320
 12034.41194 0.5769767 0.0066969
 12046.44582 0.5766280 0.0066367
 12058.50281 0.5819820 0.0064919
 12070.55979 0.5851263 0.0063662
 12082.63879 0.5812433 0.0061699
 12094.69578 0.5774094 0.0059770
 12106.79788 0.5754137 0.0057371
 12118.92199 0.5715573 0.0054644
 12131.02410 0.5690355 0.0052630
 12143.17022 0.5643314 0.0053222
 12155.29543 0.5553535 0.0052375
 12167.46465 0.5508355 0.0051416
 12179.63388 0.5497038 0.0049942
 12191.80311 0.5477897 0.0048697
 12203.99545 0.5407754 0.0048844
 12216.20979 0.5358664 0.0049115
 12228.42413 0.5319787 0.0049105
 12240.66158 0.5258814 0.0049161
 12252.89794 0.5245021 0.0048841
 12265.15850 0.5210018 0.0048718
 12277.41796 0.5146844 0.0048676
 12289.69942 0.5162418 0.0048747
 12301.98199 0.5117785 0.0049193
 12314.28657 0.5083233 0.0049896
 12326.59114 0.5062599 0.0050489
 12338.91883 0.5099695 0.0049642
 12351.26852 0.5065546 0.0049824
 12363.61821 0.5022492 0.0048803
 12375.98991 0.4961963 0.0049972
 12388.36271 0.4911401 0.0052229
 12400.75752 0.4924529 0.0055600
 12413.15232 0.4934566 0.0059185
 12425.56914 0.4897372 0.0061567
 12437.98705 0.4849885 0.0062765
 12450.42698 0.4764252 0.0062712
 12462.86690 0.4729753 0.0063235
 12475.32883 0.4682571 0.0062084
 12487.81387 0.4668498 0.0061391
 12500.29891 0.4654354 0.0058661
 12512.80596 0.4653881 0.0057194
 12525.31411 0.4688842 0.0056145
 12537.84426 0.4678604 0.0057688
 12550.39643 0.4728812 0.0057301
 12562.92658 0.4796364 0.0058426
 12575.50186 0.4811314 0.0057463
 12588.07603 0.4740610 0.0057586
 12600.67441 0.4731269 0.0055355
 12613.27169 0.4680934 0.0054550
 12625.86897 0.4651271 0.0054725
 12638.51246 0.4655982 0.0055681
 12651.15486 0.4655574 0.0055749
 12663.79726 0.4670925 0.0053855
 12676.46276 0.4699401 0.0052902
 12689.12826 0.4680237 0.0051897
 12701.81577 0.4672118 0.0051708
 12714.52639 0.4657792 0.0050532
 12727.23591 0.4665087 0.0049832
 12739.96964 0.4664916 0.0048349
 12752.72428 0.4661973 0.0047973
 12765.45801 0.4680264 0.0047105
 12778.23575 0.4701027 0.0046535
 12791.01349 0.4729149 0.0045117
 12803.79124 0.4744781 0.0044882
 12816.61410 0.4728621 0.0044967
 12829.41495 0.4724241 0.0045292
 12842.25982 0.4738997 0.0044572
 12855.10579 0.4710867 0.0044036
 12867.95175 0.4696465 0.0044484
 12880.81973 0.4696617 0.0045127
 12893.70971 0.4662995 0.0046061
 12906.60080 0.4651761 0.0047146
 12919.51389 0.4623667 0.0049287
 12932.42698 0.4579301 0.0052008
 12945.36208 0.4516874 0.0055472
 12958.29828 0.4467196 0.0057680
 12971.25649 0.4452998 0.0058419
 12984.23671 0.4468420 0.0058529
 12997.21802 0.4482524 0.0057626
 13010.22135 0.4503703 0.0055319
 13023.22467 0.4534006 0.0054169
 13036.25000 0.4572618 0.0052154
 13049.27643 0.4563361 0.0049449
 13062.34688 0.4541759 0.0046384
 13075.39532 0.4570085 0.0045262
 13088.48888 0.4516971 0.0045120
 13101.55933 0.4495808 0.0046070
 13114.67599 0.4484428 0.0047599
 13127.79156 0.4459677 0.0049645
 13140.90712 0.4415438 0.0050592
 13154.04579 0.4390034 0.0050986
 13167.20757 0.4326465 0.0051060
 13180.36825 0.4314562 0.0052625
 13193.55204 0.4230835 0.0052725
 13206.75784 0.4232980 0.0053141
 13219.96363 0.4229289 0.0052750
 13233.16943 0.4242416 0.0053145
 13246.42144 0.4257818 0.0051814
 13259.64925 0.4290542 0.0052182
 13272.92327 0.4330675 0.0053146
 13286.19729 0.4310256 0.0053953
 13299.47131 0.4280515 0.0055396
 13312.78934 0.4295432 0.0054858
 13326.08647 0.4280350 0.0054521
 13339.42761 0.4259805 0.0053846
 13352.76876 0.4282344 0.0053973
 13366.10990 0.4327258 0.0055302
 13379.47416 0.4305893 0.0057646
 13392.86042 0.4245439 0.0055412
 13406.24668 0.4164029 0.0053875
 13419.65494 0.4126761 0.0053306
 13433.08742 0.4113648 0.0052969
 13446.51880 0.4097075 0.0052010
 13459.95017 0.4118752 0.0051032
 13473.42667 0.4088412 0.0050192
 13486.90316 0.4086861 0.0049204
 13500.37965 0.4065039 0.0047931
 13513.87815 0.4046024 0.0047544
 13527.39976 0.3968154 0.0046471
 13540.92137 0.3940468 0.0045470
 13554.46608 0.3890990 0.0044960
 13568.03281 0.3845922 0.0043775
 13581.59953 0.3809371 0.0043595
 13595.18827 0.3757127 0.0042686
 13608.77810 0.3728724 0.0042668
 13622.38994 0.3697671 0.0042745
 13636.00068 0.3647260 0.0041670
 13649.63563 0.3629332 0.0041127
 13663.29258 0.3586070 0.0040438
 13676.94954 0.3584449 0.0040276
 13690.62850 0.3587084 0.0040232
 13704.33058 0.3604562 0.0040424
 13718.03265 0.3572210 0.0040190
 13731.75673 0.3502499 0.0039646
 13745.48081 0.3492943 0.0039393
 13759.22800 0.3489554 0.0039203
 13772.97519 0.3474326 0.0039127
 13786.76749 0.3464097 0.0039284
 13800.55870 0.3448033 0.0039268
 13814.35100 0.3430556 0.0039011
 13828.16531 0.3441874 0.0039131
 13842.00273 0.3445072 0.0039976
 13855.84016 0.3431986 0.0040416
 13869.69958 0.3454513 0.0041056
 13883.55901 0.3446399 0.0041118
 13897.44155 0.3453315 0.0041098
 13911.34609 0.3451373 0.0042311
 13925.25064 0.3416995 0.0043925
 13939.17829 0.3395194 0.0046886
 13953.12795 0.3387711 0.0050188
 13967.07761 0.3352852 0.0054410
 13981.05038 0.3243630 0.0059969
 13995.02205 0.3182051 0.0065767
 14009.01683 0.3215576 0.0071934
 14023.03471 0.3184457 0.0076579
 14037.05260 0.3142091 0.0081231
 14051.09249 0.3061003 0.0079176
 14065.15439 0.3088189 0.0077957
 14079.19428 0.3052746 0.0071181
 14093.27929 0.3049207 0.0071033
 14107.38741 0.3031453 0.0070824
 14121.49442 0.3048866 0.0070833
 14135.62455 0.3020787 0.0070848
 14149.75467 0.3030306 0.0072405
 14163.90681 0.3057140 0.0071899
 14178.06004 0.3007286 0.0073549
 14192.23528 0.2985667 0.0073077
 14206.43253 0.2981050 0.0077150
 14220.65289 0.2927940 0.0073942
 14234.87324 0.2894360 0.0070673
 14249.09360 0.2896485 0.0069959
 14263.35907 0.2873323 0.0068626
 14277.62455 0.2935400 0.0068886
 14291.88892 0.2937329 0.0067469
 14306.17750 0.2946320 0.0069573
 14320.48809 0.2942903 0.0066282
 14334.82069 0.2924105 0.0065694
 14349.15328 0.2874000 0.0063729
 14363.48588 0.2911829 0.0064037
 14377.86469 0.2934622 0.0061762
 14392.24240 0.3008506 0.0060508
 14406.64323 0.3069022 0.0059734
 14421.04295 0.3026358 0.0057357
 14435.46578 0.3076217 0.0058214
 14449.91171 0.3082210 0.0056588
 14464.33454 0.3027321 0.0056596
 14478.80359 0.3018776 0.0057715
 14493.29354 0.3018212 0.0058812
 14507.78459 0.3020724 0.0059707
 14522.29765 0.3049457 0.0061439
 14536.81071 0.3072975 0.0062344
 14551.36889 0.3156469 0.0063187
 14565.90506 0.3122305 0.0063820
 14580.46324 0.3136879 0.0063256
 14595.06653 0.3148864 0.0063697
 14609.64672 0.3169615 0.0064253
 14624.25001 0.3147230 0.0063003
 14638.87641 0.3129358 0.0063450
 14653.52482 0.3091400 0.0062043
 14668.17323 0.3078287 0.0061613
 14682.84365 0.3095911 0.0060750
 14697.53717 0.3091249 0.0061614
 14712.23070 0.3081105 0.0061128
 14726.94733 0.3150461 0.0061930
 14741.66286 0.3119002 0.0063398
 14756.40150 0.3063616 0.0064556
 14771.16325 0.3049107 0.0065018
 14785.94591 0.3004117 0.0065771
 14800.72967 0.2944366 0.0065498
 14815.53653 0.2857737 0.0067114
 14830.34230 0.2803408 0.0069232
 14845.17117 0.2811972 0.0070463
 14860.02205 0.2763769 0.0070467
 14874.89604 0.2741866 0.0071956
 14889.77003 0.2721381 0.0074632
 14904.64402 0.2635175 0.0079567
 14919.56202 0.2608134 0.0080834
 14934.48113 0.2531150 0.0080749
 14949.42224 0.2403698 0.0081725
 14964.36446 0.2386557 0.0082215
 14979.32758 0.2373828 0.0083182
 14994.31491 0.2363449 0.0084261
 15009.30114 0.2312907 0.0086545
 15024.30937 0.2329183 0.0086476
 15039.34182 0.2252619 0.0087547
 15054.37316 0.2172379 0.0091495
 15069.42652 0.2148083 0.0090055
 15084.50298 0.2127116 0.0090591
 15099.58054 0.2109464 0.0092544
 15114.67901 0.2114796 0.0093390
 15129.80059 0.2103500 0.0096651
 15144.92216 0.2142229 0.0098259
 15160.08886 0.2154950 0.0100243
 15175.23354 0.2290762 0.0106157
 15190.42224 0.2202574 0.0112753
 15205.61205 0.2114296 0.0113951
 15220.82386 0.2089970 0.0114992
 15236.03567 0.2088203 0.0118374
 15251.26948 0.2006847 0.0122073
 15266.52641 0.1980072 0.0127798
 15281.78333 0.1974219 0.0136762
 15297.08537 0.1940674 0.0148306
 15312.36541 0.1900380 0.0162641
 15327.68946 0.1805656 0.0174421
 15343.01461 0.1750356 0.0191049
 15358.36066 0.1669024 0.0213622
 15373.73093 0.1605538 0.0242937
 15389.10010 0.1624548 0.0286736
 15404.49237 0.1649960 0.0335624
 15419.88464 0.1710065 0.0401164
 15435.29892 0.1897826 0.0495243
 15450.73631 0.2130005 0.0573878
