# SOURCE  = 'Quimby et al. 2018' /                                                
# OBJECT  = 'PTF10hgi'           /                                                
# Z       =            0.0982000 / wavelengths in OBSERVER FRAME                 
# NORM    =          2.96380E-17 / fluxes divided by norm                         
# CLIPPED =                    1 / galaxy emission lines removed                  
# SMOOTHED=                    1 / spectrum has been smoothed                     
# COLUMN01= 'Wavelength (Angstrom)' /                                             
# COLUMN02= 'Flux Density (erg/s/cm2/A)' /                                        
# COLUMN03= 'Flux Density Uncertainty (erg/s/cm2/A)' /                            
# END                                                                             
# 
# 
# 
# 
# 
# 
# 
# 
# 
# 
# Converted to Observer Frame using z=0.0982
 3553.22039 0.4549216 0.1331750
 3556.77816 0.4631021 0.1305101
 3560.33622 0.4923867 0.1280301
 3563.89399 0.4718598 0.1253279
 3567.46383 0.5019587 0.1226152
 3571.02160 0.4837908 0.1201460
 3574.59144 0.4605858 0.1165902
 3578.17365 0.4282003 0.1143220
 3581.75556 0.4319733 0.1124652
 3585.33748 0.4583254 0.1104957
 3588.91939 0.4837160 0.1085091
 3592.51337 0.4952388 0.1067235
 3596.09529 0.4783455 0.1047955
 3599.70134 0.4701929 0.1022651
 3603.29533 0.4325418 0.1004204
 3606.90139 0.4106442 0.0985888
 3610.50744 0.3861454 0.0969864
 3614.11350 0.3853816 0.0952303
 3617.73163 0.3721031 0.0936918
 3621.34976 0.3504241 0.0919154
 3624.96789 0.3583535 0.0894164
 3628.59809 0.3622031 0.0878892
 3632.22829 0.3828003 0.0861365
 3635.85850 0.3858382 0.0845682
 3639.48870 0.3845988 0.0828662
 3643.13097 0.3858839 0.0813166
 3646.77325 0.3937482 0.0792215
 3650.42759 0.4017801 0.0774812
 3654.06987 0.3818300 0.0757281
 3657.72421 0.3828608 0.0739837
 3661.39063 0.3791570 0.0723938
 3665.04468 0.3627020 0.0711159
 3668.71110 0.3532307 0.0693430
 3672.37752 0.3533427 0.0684390
 3676.05601 0.3502038 0.0674805
 3679.73450 0.3541457 0.0667920
 3683.41270 0.3466644 0.0660098
 3687.09119 0.3743633 0.0648046
 3690.78175 0.3894963 0.0643517
 3694.47232 0.4077407 0.0636544
 3698.16288 0.3999700 0.0631601
 3701.86522 0.4083525 0.0623931
 3705.56785 0.4087634 0.0612766
 3709.27049 0.3884764 0.0603454
 3712.98490 0.4034272 0.0593758
 3716.69961 0.3976242 0.0585198
 3720.41432 0.4118446 0.0575288
 3724.12873 0.4186866 0.0561975
 3727.85551 0.4135115 0.0551818
 3731.58229 0.4344333 0.0543744
 3735.32085 0.4475990 0.0535294
 3739.04763 0.4711052 0.0529019
 3742.78648 0.4652745 0.0518520
 3746.53711 0.4526106 0.0513968
 3750.28803 0.4477519 0.0508577
 3754.02659 0.4375100 0.0505196
 3757.78959 0.4257253 0.0496922
 3761.54022 0.4146792 0.0493848
 3765.30321 0.4152167 0.0489675
 3769.06591 0.4072905 0.0488470
 3772.84098 0.4148447 0.0485415
 3776.61576 0.4101069 0.0480511
 3780.39082 0.4246706 0.0479435
 3784.16560 0.4288110 0.0474639
 3787.95274 0.4306361 0.0469232
 3791.73959 0.4384290 0.0463568
 3795.53880 0.4351028 0.0460259
 3799.32564 0.4538958 0.0459357
 3803.12456 0.4518744 0.0457361
 3806.93585 0.4575554 0.0454385
 3810.73477 0.4476120 0.0451871
 3814.54605 0.4600284 0.0451345
 3818.36911 0.4637527 0.0448051
 3822.18011 0.4775943 0.0443223
 3826.00346 0.4863542 0.0438998
 3829.83860 0.4954429 0.0436034
 3833.66166 0.5042287 0.0431091
 3837.49680 0.5107108 0.0425038
 3841.33222 0.5230373 0.0420638
 3845.17943 0.5062286 0.0416498
 3849.02664 0.4995893 0.0410062
 3852.87385 0.5123140 0.0402037
 3856.72135 0.5131084 0.0396405
 3860.58063 0.5213696 0.0393126
 3864.43991 0.5361417 0.0388594
 3868.31126 0.5470407 0.0386807
 3872.17054 0.5644985 0.0388244
 3876.04218 0.5646815 0.0388066
 3879.92561 0.5830299 0.0389330
 3883.79696 0.5886295 0.0387398
 3887.69246 0.5935897 0.0390221
 3891.57588 0.6074271 0.0390433
 3895.47138 0.6129048 0.0390320
 3899.36687 0.6005637 0.0392269
 3903.26237 0.6008370 0.0390960
 3907.16994 0.5964061 0.0387914
 3911.07751 0.5879407 0.0384657
 3914.98507 0.5802298 0.0382236
 3918.90471 0.5823596 0.0375084
 3922.82435 0.5649217 0.0372198
 3926.74400 0.5439550 0.0369754
 3930.66364 0.5247931 0.0365887
 3934.59535 0.5064682 0.0361126
 3938.53913 0.4909878 0.0357730
 3942.47085 0.4682278 0.0355959
 3946.41463 0.4556456 0.0352650
 3950.35842 0.4443049 0.0350220
 3954.31427 0.4490676 0.0349737
 3958.27013 0.4436946 0.0345512
 3962.22599 0.4510641 0.0345971
 3966.19392 0.4584557 0.0347138
 3970.14948 0.4668995 0.0344522
 3974.12948 0.4695700 0.0346549
 3978.09741 0.4751911 0.0348557
 3982.07741 0.5002685 0.0345895
 3986.05741 0.5134628 0.0347429
 3990.04919 0.5371221 0.0346983
 3994.04127 0.5576885 0.0345989
 3998.03334 0.5652354 0.0346443
 4002.02541 0.5723643 0.0344124
 4006.02927 0.5895215 0.0340712
 4010.03341 0.5865500 0.0339917
 4014.04963 0.5846008 0.0337126
 4018.06585 0.5877188 0.0333065
 4022.08177 0.5883394 0.0331357
 4026.09799 0.6053231 0.0325373
 4030.12628 0.6023788 0.0323603
 4034.15428 0.6009252 0.0322439
 4038.19464 0.6000667 0.0317510
 4042.23471 0.5942462 0.0317091
 4046.27507 0.5954557 0.0317454
 4050.31543 0.6035200 0.0314618
 4054.36757 0.5892075 0.0316368
 4058.42001 0.5852348 0.0318009
 4062.48422 0.6081861 0.0314888
 4066.54873 0.6228970 0.0315528
 4070.61294 0.6308981 0.0313343
 4074.68952 0.6417067 0.0311674
 4078.76580 0.6428050 0.0312035
 4082.84238 0.6584742 0.0310454
 4086.91867 0.6724473 0.0311243
 4091.00732 0.6770305 0.0307859
 4095.09568 0.6810002 0.0309025
 4099.19611 0.7026531 0.0306168
 4103.29683 0.7098437 0.0307715
 4107.39726 0.7344069 0.0303851
 4111.51006 0.7236800 0.0303383
 4115.61048 0.7211692 0.0299560
 4119.73506 0.7345642 0.0296235
 4123.84785 0.7320071 0.0291725
 4127.97243 0.7217114 0.0285931
 4132.10907 0.7218409 0.0284786
 4136.23394 0.7372609 0.0280137
 4140.37059 0.7381563 0.0279677
 4144.50723 0.7430490 0.0275815
 4148.65595 0.7445667 0.0273820
 4152.80496 0.7469981 0.0273531
 4156.96575 0.7599366 0.0269420
 4161.11447 0.7724696 0.0267456
 4165.27526 0.7725725 0.0266107
 4169.44812 0.7834327 0.0264259
 4173.60921 0.7890376 0.0262671
 4177.78207 0.7966754 0.0261219
 4181.96701 0.7949991 0.0258869
 4186.15194 0.7944734 0.0260299
 4190.33688 0.7851781 0.0259880
 4194.52181 0.7904680 0.0257572
 4198.71882 0.7987381 0.0259047
 4202.91582 0.7918077 0.0256634
 4207.12520 0.7819179 0.0257335
 4211.33428 0.7901325 0.0255224
 4215.54336 0.7869688 0.0251351
 4219.75244 0.7777479 0.0250596
 4223.97359 0.7753364 0.0246081
 4228.19474 0.7752941 0.0242765
 4232.42796 0.7658565 0.0241363
 4236.66119 0.7539328 0.0236811
 4240.89441 0.7464244 0.0233683
 4245.13941 0.7512400 0.0231767
 4249.38471 0.7591763 0.0229454
 4253.63000 0.7374456 0.0226884
 4257.88737 0.7393315 0.0225072
 4262.14474 0.7381878 0.0223200
 4266.41418 0.7413494 0.0222075
 4270.67155 0.7550290 0.0221740
 4274.94099 0.7546173 0.0221732
 4279.22220 0.7724705 0.0222197
 4283.50372 0.7773643 0.0221512
 4287.78523 0.7854617 0.0223417
 4292.06674 0.7936388 0.0221571
 4296.36033 0.8061779 0.0220688
 4300.65362 0.8230783 0.0220942
 4304.95927 0.8336268 0.0217611
 4309.26493 0.8468115 0.0215648
 4313.58236 0.8480959 0.0213837
 4317.88802 0.8642666 0.0212748
 4322.20575 0.8777778 0.0211977
 4326.53526 0.8779780 0.0211572
 4330.85299 0.8744487 0.0211124
 4335.18279 0.8562518 0.0210311
 4339.52437 0.8637739 0.0209023
 4343.86624 0.8547862 0.0206325
 4348.20811 0.8597216 0.0206451
 4352.56176 0.8556522 0.0205253
 4356.90364 0.8464056 0.0203107
 4361.26936 0.8444560 0.0202600
 4365.62331 0.8303974 0.0203891
 4369.98903 0.8222335 0.0204358
 4374.36712 0.8215895 0.0203331
 4378.73284 0.8229315 0.0203827
 4383.11093 0.8282503 0.0205638
 4387.50080 0.8293939 0.0204446
 4391.89096 0.8369422 0.0204562
 4396.28083 0.8401601 0.0204373
 4400.68307 0.8472826 0.0204905
 4405.07293 0.8521317 0.0203878
 4409.48695 0.8489461 0.0203310
 4413.88918 0.8686362 0.0202973
 4418.30319 0.8783331 0.0201744
 4422.72928 0.8871384 0.0203116
 4427.14358 0.8974357 0.0202910
 4431.58174 0.9177601 0.0202694
 4436.00783 0.9342606 0.0201247
 4440.44628 0.9510800 0.0201063
 4444.88443 0.9615069 0.0202336
 4449.33466 0.9698883 0.0201907
 4453.77282 0.9743593 0.0199928
 4458.23541 0.9942301 0.0199104
 4462.68564 1.0211505 0.0198115
 4467.16002 1.0385652 0.0198392
 4471.62232 1.0555681 0.0196158
 4476.09669 1.0721066 0.0195256
 4480.57136 1.0771230 0.0194547
 4485.04573 1.0794955 0.0194199
 4489.53218 1.0787221 0.0190265
 4494.03070 1.0771220 0.0189784
 4498.51714 1.0742939 0.0188071
 4503.01566 1.0595269 0.0186696
 4507.52625 1.0416301 0.0185498
 4512.02477 1.0269841 0.0183499
 4516.54743 1.0080909 0.0182961
 4521.05802 0.9767798 0.0184014
 4525.58068 0.9488742 0.0183943
 4530.10334 0.9189572 0.0182688
 4534.63808 0.8913323 0.0182430
 4539.17281 0.8624583 0.0181991
 4543.70755 0.8411581 0.0181528
 4548.25435 0.8269566 0.0181185
 4552.80116 0.8022113 0.0180972
 4557.36004 0.7862071 0.0180835
 4561.90684 0.7629662 0.0180725
 4566.47780 0.7461315 0.0180439
 4571.03667 0.7464979 0.0180163
 4575.60733 0.7348328 0.0179786
 4580.19035 0.7307243 0.0177900
 4584.77338 0.7214645 0.0176846
 4589.35640 0.7240582 0.0175415
 4593.93942 0.7236475 0.0173805
 4598.53422 0.7168773 0.0173513
 4603.14139 0.7192830 0.0172116
 4607.73649 0.7154397 0.0170878
 4612.34365 0.7232017 0.0168760
 4616.96260 0.7261434 0.0167889
 4621.58184 0.7165006 0.0167039
 4626.20108 0.7134672 0.0166168
 4630.82003 0.7169300 0.0165398
 4635.45134 0.7232820 0.0164820
 4640.09472 0.7240974 0.0164395
 4644.73781 0.7264337 0.0162981
 4649.38120 0.7303583 0.0162786
 4654.02429 0.7338607 0.0162633
 4658.67974 0.7395825 0.0162532
 4663.33490 0.7416196 0.0162553
 4668.00243 0.7573141 0.0163578
 4672.66967 0.7777236 0.0163481
 4677.34927 0.7989825 0.0163168
 4682.01650 0.8191845 0.0162764
 4686.70818 0.8501320 0.0162380
 4691.38748 0.8827344 0.0161171
 4696.07915 0.9126707 0.0160803
 4700.78261 0.9405704 0.0160130
 4705.48635 0.9644633 0.0159637
 4710.18980 0.9923361 0.0159399
 4714.89325 1.0414062 0.0159294
 4719.60907 1.0811383 0.0159294
 4724.33667 1.1219574 0.0159504
 4729.05219 1.1534305 0.0159827
 4733.79215 1.1869032 0.0159981
 4738.51975 1.2018378 0.0160271
 4743.25941 1.2139790 0.0160420
 4747.99937 1.2337064 0.0160154
 4752.75111 1.2555408 0.0159870
 4757.50285 1.2739927 0.0158678
 4762.26667 1.2904412 0.0158556
 4767.01870 1.3021774 0.0158160
 4771.79458 1.3157803 0.0157891
 4776.55840 1.3283141 0.0157875
 4781.33428 1.3326669 0.0157899
 4786.12224 1.3353270 0.0157938
 4790.91019 1.3479888 0.0156798
 4795.69815 1.3643610 0.0156547
 4800.49847 1.3901823 0.0156356
 4805.29850 1.4253701 0.0156166
 4810.09853 1.4473588 0.0156110
 4814.91063 1.4630228 0.0156307
 4819.72273 1.4712442 0.0156775
 4824.54690 1.4804391 0.0157516
 4829.37108 1.4794558 0.0158528
 4834.19525 1.4843940 0.0159472
 4839.03150 1.4866550 0.0160049
 4843.86774 1.4937789 0.0160501
 4848.71606 1.4979210 0.0160873
 4853.56438 1.4872133 0.0161040
 4858.42447 1.4727288 0.0159710
 4863.27279 1.4560513 0.0159190
 4868.14525 1.4348634 0.0158547
 4873.01771 1.4180845 0.0157664
 4877.89017 1.3960007 0.0156889
 4882.76263 1.3752937 0.0156218
 4887.64687 1.3462307 0.0155563
 4892.53141 1.3339581 0.0155837
 4897.42801 1.3107584 0.0155246
 4902.32462 1.2915150 0.0153903
 4907.22123 1.2722621 0.0153539
 4912.12961 1.2675681 0.0153255
 4917.05036 1.2581823 0.0153195
 4921.95904 1.2478544 0.0153178
 4926.89157 1.2475072 0.0153612
 4931.81232 1.2619451 0.0153330
 4936.74514 1.2735097 0.0152397
 4941.67796 1.2773805 0.0152688
 4946.62227 1.2850246 0.0153111
 4951.56717 1.2875797 0.0153625
 4956.52443 1.2921048 0.0154184
 4961.48110 1.2951185 0.0155681
 4966.43777 1.2931556 0.0155166
 4971.40681 1.2991689 0.0155481
 4976.37585 1.2896528 0.0155499
 4981.35667 1.2939003 0.0155314
 4986.33749 1.2941098 0.0154885
 4991.31830 1.2941082 0.0154262
 4996.31149 1.2993218 0.0152685
 5001.31645 1.2904190 0.0152012
 5006.30963 1.2884381 0.0152257
 5011.32696 1.2782040 0.0151986
 5016.33192 1.2670116 0.0151996
 5021.34925 1.2499692 0.0151541
 5026.36599 1.2362344 0.0150453
 5031.39510 1.1999505 0.0150255
 5036.42479 1.1732584 0.0150034
 5041.46568 1.1416429 0.0149719
 5046.50715 1.1046963 0.0149410
 5051.56040 1.0800908 0.0149122
 5056.60187 1.0666696 0.0148860
 5061.66690 1.0555001 0.0147817
 5066.72015 1.0473236 0.0147697
 5071.78577 1.0349212 0.0148333
 5076.86316 1.0347769 0.0148110
 5081.94056 1.0342810 0.0147057
 5087.01795 1.0315484 0.0146854
 5092.10771 1.0319645 0.0146677
 5097.19689 1.0380127 0.0147432
 5102.29843 1.0561638 0.0146517
 5107.39997 1.0700641 0.0146579
 5112.51387 1.0857195 0.0146678
 5117.62719 1.0923917 0.0145993
 5122.74110 1.1004161 0.0147053
 5127.86678 1.0867852 0.0147106
 5132.99246 1.0989830 0.0147122
 5138.12992 1.1059620 0.0146133
 5143.26797 1.1115472 0.0146775
 5148.40544 1.1249384 0.0146528
 5153.55526 1.1302088 0.0145349
 5158.70509 1.1247164 0.0145081
 5163.86729 1.1268193 0.0145853
 5169.02889 1.1223431 0.0144727
 5174.20287 1.1225928 0.0144388
 5179.37684 1.1166542 0.0144130
 5184.55081 1.1106828 0.0143818
 5189.73656 1.1168389 0.0143556
 5194.93468 1.1240081 0.0143326
 5200.12102 1.1300426 0.0142222
 5205.33091 1.1372964 0.0142781
 5210.52903 1.1351546 0.0142578
 5215.73892 1.1331168 0.0141676
 5220.96119 1.1349887 0.0141653
 5226.18345 1.1360236 0.0141617
 5231.40571 1.1448720 0.0141658
 5236.63975 1.1521156 0.0141754
 5241.87379 1.1551611 0.0141847
 5247.12019 1.1507145 0.0141889
 5252.36660 1.1372887 0.0141122
 5257.61300 1.1260263 0.0141988
 5262.87119 1.1248212 0.0142225
 5268.14174 1.1115824 0.0141691
 5273.39992 1.1036739 0.0142848
 5278.68225 1.0829720 0.0142496
 5283.95280 1.0816245 0.0142908
 5289.23513 1.0753489 0.0144264
 5294.52982 1.0731792 0.0143868
 5299.82452 1.0773000 0.0144077
 5305.13099 1.0748780 0.0144214
 5310.42569 1.0820103 0.0144033
 5315.74394 1.1000984 0.0142786
 5321.06277 1.1119657 0.0142949
 5326.38161 1.1155638 0.0141457
 5331.69986 1.1222043 0.0141491
 5337.04285 1.1293318 0.0140921
 5342.37346 1.1290406 0.0139616
 5347.71645 1.1268991 0.0139928
 5353.07121 1.1229452 0.0138925
 5358.41419 1.1215698 0.0138955
 5363.78073 1.1256109 0.0138986
 5369.13549 1.1204804 0.0139042
 5374.51440 1.1135502 0.0139086
 5379.88153 1.1139133 0.0139115
 5385.27280 1.1246648 0.0139149
 5390.65171 1.1318377 0.0139126
 5396.04239 1.1579300 0.0138320
 5401.44544 1.1813252 0.0139160
 5406.83671 1.2051208 0.0138511
 5412.25154 1.2432705 0.0139403
 5417.65459 1.2620778 0.0138702
 5423.08178 1.2772417 0.0139653
 5428.49720 1.2904308 0.0139162
 5433.92440 1.3146735 0.0138666
 5439.36337 1.3329672 0.0139652
 5444.80293 1.3560287 0.0139007
 5450.25427 1.3705446 0.0139829
 5455.69324 1.3893543 0.0139168
 5461.15695 1.4177696 0.0140150
 5466.62006 1.4410228 0.0139494
 5472.08377 1.4632273 0.0139667
 5477.55866 1.4771882 0.0139743
 5483.03415 1.5015930 0.0139793
 5488.52200 1.5127209 0.0139815
 5494.00926 1.5193805 0.0139714
 5499.49711 1.5348819 0.0139657
 5504.99615 1.5473241 0.0139564
 5510.50814 1.5570945 0.0138649
 5516.01955 1.5669823 0.0139181
 5521.53154 1.5532823 0.0138188
 5527.05472 1.5528175 0.0138075
 5532.57850 1.5582191 0.0138043
 5538.11464 1.5634956 0.0137991
 5543.65019 1.5638416 0.0138673
 5549.19810 1.5723208 0.0137929
 5554.74543 1.5745330 0.0137959
 5560.30571 1.5918622 0.0137982
 5565.86541 1.5972660 0.0138065
 5571.42510 1.5945415 0.0137298
 5576.99716 1.5974803 0.0138038
 5582.58100 1.5979922 0.0137337
 5588.16543 1.5946352 0.0137297
 5593.74927 1.5747958 0.0138017
 5599.34547 1.5627719 0.0137209
 5604.94109 1.5458581 0.0137249
 5610.54907 1.5304486 0.0137301
 5616.15765 1.5017117 0.0137348
 5621.77741 1.4786900 0.0137433
 5627.39776 1.4481525 0.0136964
 5633.02989 1.4277875 0.0137969
 5638.65024 1.4123456 0.0137444
 5644.29414 1.3732111 0.0137642
 5649.93864 1.3359321 0.0138378
 5655.59491 1.2960812 0.0137639
 5661.25118 1.2503455 0.0137398
 5666.90745 1.2130269 0.0137215
 5672.57609 1.1712979 0.0137156
 5678.24473 1.1446615 0.0137307
 5683.92515 1.1232665 0.0137561
 5689.60556 1.1092440 0.0137241
 5695.29776 1.0905496 0.0138538
 5701.00232 1.0809946 0.0139123
 5706.69510 1.0826292 0.0138864
 5712.39966 1.0868272 0.0139530
 5718.11659 1.0996685 0.0140080
 5723.83293 1.1141413 0.0140214
 5729.56163 1.1443069 0.0140333
 5735.29034 1.1665370 0.0140675
 5741.03141 1.1979924 0.0140905
 5746.76012 1.2119693 0.0140028
 5752.51297 1.2151767 0.0140990
 5758.26523 1.2251511 0.0141261
 5764.03044 1.2330363 0.0140713
 5769.79507 1.2423640 0.0140542
 5775.56029 1.2438518 0.0140339
 5781.33728 1.2539389 0.0140317
 5787.11428 1.2636538 0.0140376
 5792.90305 1.2683809 0.0140536
 5798.69182 1.2778859 0.0140878
 5804.49296 1.2811086 0.0141489
 5810.30646 1.2928863 0.0141284
 5816.11938 1.3052766 0.0141942
 5821.93230 1.3153270 0.0142803
 5827.74580 1.3165380 0.0144251
 5833.58286 1.3294445 0.0144910
 5839.40815 1.3377683 0.0144434
 5845.24521 1.3291889 0.0145068
 5851.09463 1.3309486 0.0145614
 5856.94406 1.3180206 0.0145909
 5862.80527 1.3031638 0.0146481
 5868.66647 1.2885514 0.0146249
 5874.54004 1.2710702 0.0146648
 5880.41362 1.2541857 0.0146877
 5886.28719 1.2366799 0.0147048
 5892.18432 1.2332731 0.0147044
 5898.07025 1.2280577 0.0146879
 5903.96738 1.2269568 0.0145856
 5909.87746 1.2330379 0.0145660
 5915.78696 1.2309089 0.0145501
 5921.69645 1.2326343 0.0145379
 5927.63009 1.2399818 0.0145489
 5933.55195 1.2470020 0.0145915
 5939.48559 1.2640275 0.0147330
 5945.43160 1.2847617 0.0147426
 5951.36523 1.3063273 0.0147137
 5957.32302 1.3152864 0.0147036
 5963.28080 1.3373266 0.0147719
 5969.23858 1.3499638 0.0148411
 5975.20873 1.3554817 0.0149106
 5981.19066 1.3654417 0.0149798
 5987.17259 1.3822422 0.0150463
 5993.15451 1.4027139 0.0151153
 5999.14881 1.4271317 0.0151864
 6005.15488 1.4546851 0.0152551
 6011.16095 1.4898504 0.0153131
 6017.16702 1.5121499 0.0153915
 6023.18487 1.5280911 0.0154752
 6029.20331 1.5417964 0.0155594
 6035.23353 1.5471822 0.0156237
 6041.27552 1.5569822 0.0156166
 6047.31811 1.5583054 0.0157253
 6053.36010 1.5500430 0.0158533
 6059.41446 1.5448827 0.0160780
 6065.46882 1.5345314 0.0165098
 6071.53496 1.5114102 0.0166110
 6077.61346 1.4817413 0.0164927
 6083.69197 1.4415305 0.0167225
 6089.78284 1.3971740 0.0171780
 6095.86135 1.3596327 0.0179125
 6101.96400 1.3246019 0.0185450
 6108.06606 1.2975388 0.0191655
 6114.16871 1.2670490 0.0196974
 6120.28372 1.2553655 0.0200448
 6126.40993 1.2411513 0.0201426
 6132.53672 1.2256469 0.0199589
 6138.66351 1.2303953 0.0196301
 6144.80209 1.2283536 0.0191532
 6150.95302 1.2284971 0.0185978
 6157.10396 1.2339216 0.0182056
 6163.25490 1.2335055 0.0177173
 6169.41762 1.2458072 0.0173807
 6175.59270 1.2676831 0.0173506
 6181.76778 1.2815315 0.0174936
 6187.95464 1.2921880 0.0169455
 6194.14150 1.2959417 0.0165603
 6200.32836 1.3036354 0.0162963
 6206.53996 1.3142128 0.0160343
 6212.73860 1.3351673 0.0157630
 6218.95019 1.3446883 0.0155293
 6225.17297 1.3566839 0.0154305
 6231.39634 1.3587465 0.0152834
 6237.63149 1.3694566 0.0147452
 6243.86664 1.3818920 0.0144519
 6250.11416 1.3858287 0.0143567
 6256.36109 1.3999044 0.0143491
 6262.62097 1.4063556 0.0143656
 6268.88026 1.4180359 0.0142735
 6275.15133 1.4225549 0.0142321
 6281.42299 1.4353368 0.0141253
 6287.70643 1.4472175 0.0139566
 6294.00224 1.4579731 0.0137229
 6300.28567 1.4725953 0.0133455
 6306.59326 1.4826925 0.0130447
 6312.90084 1.4902717 0.0127275
 6319.20842 1.5060012 0.0124296
 6325.52778 1.5095453 0.0121636
 6331.85951 1.5113682 0.0119602
 6338.19124 1.5199398 0.0118562
 6344.52296 1.5063688 0.0118959
 6350.86706 1.5138052 0.0118141
 6357.22293 1.5049258 0.0116226
 6363.57880 1.5045493 0.0114947
 6369.94645 1.5019840 0.0114174
 6376.31469 1.5087216 0.0113548
 6382.69411 1.5167158 0.0113173
 6389.07413 1.5176309 0.0111694
 6395.46651 1.5220467 0.0110913
 6401.85831 1.5270739 0.0110754
 6408.26247 1.5324801 0.0111173
 6414.66663 1.5373853 0.0111415
 6421.08257 1.5514767 0.0110344
 6427.51087 1.5557126 0.0110370
 6433.93917 1.5503712 0.0112157
 6440.36748 1.5538306 0.0113365
 6446.80756 1.5416085 0.0115181
 6453.26001 1.5302266 0.0117142
 6459.71246 1.5270315 0.0118526
 6466.17669 1.5099481 0.0119535
 6472.62914 1.5053209 0.0120244
 6479.10573 1.4835925 0.0120067
 6485.59410 1.4765074 0.0118112
 6492.07069 1.4588637 0.0116720
 6498.57084 1.4508913 0.0115305
 6505.05980 1.4422944 0.0113736
 6511.57232 1.4370199 0.0111650
 6518.08483 1.4278622 0.0109770
 6524.59735 1.4263817 0.0109281
 6531.12223 1.4284199 0.0109749
 6537.65889 1.4242795 0.0108953
 6544.19555 1.4406941 0.0107281
 6550.74458 1.4355692 0.0105863
 6557.29302 1.4417996 0.0105352
 6563.85441 1.4487449 0.0104768
 6570.41522 1.4449728 0.0104574
 6576.98780 1.4474859 0.0104053
 6583.56097 1.4563258 0.0102774
 6590.14592 1.4608532 0.0102170
 6596.73087 1.4587544 0.0101754
 6603.32818 1.4523797 0.0101297
 6609.93728 1.4528631 0.0100246
 6616.54637 1.4426110 0.0100378
 6623.16724 1.4448416 0.0100266
 6629.78870 1.4333677 0.0100048
 6636.42194 1.4271513 0.0099135
 6643.05518 1.4051807 0.0098970
 6649.70019 1.3919652 0.0098882
 6656.34580 1.3711478 0.0099204
 6663.00318 1.3652593 0.0098431
 6669.66056 1.3596569 0.0098243
 6676.32972 1.3465886 0.0098179
 6683.01125 1.3380278 0.0097668
 6689.69277 1.3257000 0.0097911
 6696.38608 1.3179744 0.0097621
 6703.07997 1.3098392 0.0097391
 6709.78564 1.2973746 0.0096826
 6716.50309 1.2913781 0.0097156
 6723.20876 1.2766480 0.0096717
 6729.93858 1.2707893 0.0095813
 6736.66781 1.2630579 0.0095549
 6743.40999 1.2514001 0.0095772
 6750.15158 1.2407250 0.0095058
 6756.89317 1.2315141 0.0094694
 6763.65950 1.2293204 0.0094320
 6770.42524 1.2242115 0.0093941
 6777.19098 1.2279983 0.0093543
 6783.96908 1.2281028 0.0093472
 6790.74718 1.2388730 0.0092423
 6797.53707 1.2407970 0.0092139
 6804.33932 1.2489692 0.0091800
 6811.14098 1.2488765 0.0091935
 6817.95559 1.2568145 0.0092171
 6824.78140 1.2637357 0.0091858
 6831.59601 1.2556247 0.0092224
 6838.43418 1.2348427 0.0092587
 6845.27235 1.2200303 0.0094338
 6852.11052 1.1848103 0.0095624
 6858.97284 1.1475291 0.0094120
 6865.82338 1.1057405 0.0093737
 6872.69747 1.0587797 0.0093740
 6879.57215 1.0181119 0.0094944
 6886.44683 0.9912749 0.0096898
 6893.33329 0.9552950 0.0097324
 6900.23153 0.9266299 0.0098169
 6907.13036 0.9015540 0.0098824
 6914.04096 0.8838907 0.0099415
 6920.95157 0.8859442 0.0097795
 6927.87395 0.8954746 0.0096020
 6934.79692 0.9144143 0.0093114
 6941.73167 0.9301344 0.0091503
 6948.67819 0.9524716 0.0089225
 6955.62531 0.9809477 0.0086558
 6962.58420 1.0061893 0.0085404
 6969.54310 1.0328252 0.0084236
 6976.51377 1.0652788 0.0084403
 6983.48503 1.0930871 0.0084949
 6990.47984 1.1200511 0.0083431
 6997.46288 1.1498770 0.0082897
 7004.47006 1.1724668 0.0081338
 7011.46488 1.2019688 0.0080443
 7018.48442 1.2302778 0.0080356
 7025.50338 1.2499779 0.0079963
 7032.52234 1.2665231 0.0080677
 7039.55367 1.2853236 0.0080890
 7046.59736 1.2991865 0.0081664
 7053.64047 1.3034071 0.0081573
 7060.69594 1.3121830 0.0081646
 7067.76319 1.3052289 0.0081984
 7074.83043 1.2983212 0.0081640
 7081.89768 1.2878144 0.0081419
 7088.98966 1.2869473 0.0080332
 7096.06869 1.2791140 0.0080186
 7103.17245 1.2718803 0.0079557
 7110.27621 1.2618709 0.0079576
 7117.37997 1.2593673 0.0079039
 7124.50729 1.2552767 0.0079454
 7131.62341 1.2618181 0.0080008
 7138.76309 1.2572544 0.0079149
 7145.90277 1.2661862 0.0078670
 7153.04246 1.2826378 0.0078797
 7160.19450 1.2885923 0.0078529
 7167.35833 1.2917830 0.0079133
 7174.52216 1.3002681 0.0078980
 7181.69776 1.2972496 0.0079218
 7188.88632 1.2911202 0.0078659
 7196.07429 1.2897004 0.0078353
 7203.26226 1.2804450 0.0078327
 7210.47438 1.2628789 0.0077825
 7217.68649 1.2481775 0.0076709
 7224.89861 1.2382625 0.0075704
 7232.12250 1.2240542 0.0074604
 7239.35876 1.2051840 0.0073344
 7246.59502 1.1858630 0.0072816
 7253.84364 1.1740663 0.0071563
 7261.10405 1.1610398 0.0070794
 7268.36445 1.1512245 0.0070604
 7275.63663 1.1346925 0.0069670
 7282.90940 1.1290421 0.0069337
 7290.19395 1.1239890 0.0069270
 7297.47791 1.1135958 0.0068521
 7304.77483 1.1063513 0.0067992
 7312.08352 1.1003309 0.0067978
 7319.39221 1.0946447 0.0068006
 7326.71268 1.0946286 0.0067713
 7334.04552 1.0950166 0.0067729
 7341.37836 1.0977069 0.0068189
 7348.72297 1.0996705 0.0068023
 7356.06759 1.1060426 0.0068133
 7363.42457 1.1126713 0.0067989
 7370.78155 1.1233964 0.0067725
 7378.16268 1.1282941 0.0067298
 7385.54321 1.1361806 0.0066726
 7392.92434 1.1433692 0.0065771
 7400.31724 1.1471436 0.0065319
 7407.72251 1.1495501 0.0064609
 7415.12778 1.1493963 0.0063819
 7422.54483 1.1482399 0.0063633
 7429.96188 1.1407471 0.0064451
 7437.39129 1.1346884 0.0063362
 7444.83249 1.1204447 0.0062616
 7452.27368 1.1115841 0.0062613
 7459.72724 1.1028801 0.0062821
 7467.19258 1.0934753 0.0064258
 7474.65791 1.0794028 0.0065156
 7482.13562 1.0686084 0.0065363
 7489.61273 1.0546747 0.0065808
 7497.10221 1.0417444 0.0067025
 7504.60406 1.0331042 0.0068493
 7512.10591 1.0222234 0.0069989
 7519.61953 1.0085239 0.0071110
 7527.14494 0.9987568 0.0072324
 7534.65856 0.9859896 0.0073632
 7542.19633 0.9797835 0.0074243
 7549.74647 0.9788477 0.0074366
 7557.29602 0.9761808 0.0074527
 7564.85793 0.9742172 0.0074542
 7572.41985 0.9709578 0.0076208
 7579.99354 0.9659888 0.0076109
 7587.56782 0.9566725 0.0076169
 7595.15388 0.9467843 0.0076858
 7602.75172 0.9351214 0.0079553
 7610.36192 0.9133357 0.0081741
 7617.97213 0.8926551 0.0083446
 7625.58233 0.8641382 0.0080332
 7633.21668 0.8257657 0.0075394
 7640.85102 0.8012493 0.0075612
 7648.48478 0.7795987 0.0076823
 7656.13150 0.7637848 0.0078723
 7663.78999 0.7589927 0.0079936
 7671.46026 0.7566773 0.0080809
 7679.13053 0.7712824 0.0083005
 7686.80080 0.8075917 0.0082229
 7694.49580 0.8479304 0.0078268
 7702.19022 0.8807943 0.0074192
 7709.89700 0.9277778 0.0069664
 7717.60319 0.9707928 0.0066806
 7725.32175 1.0110534 0.0064962
 7733.05268 1.0503992 0.0064008
 7740.77124 1.0921946 0.0065168
 7748.51453 1.1401625 0.0071195
 7756.26901 1.1739438 0.0067739
 7764.02408 1.2159780 0.0066094
 7771.79093 1.2382953 0.0063316
 7779.55778 1.2528142 0.0061297
 7787.34877 1.2579964 0.0059700
 7795.12798 1.2572283 0.0058373
 7802.91897 1.2527493 0.0056914
 7810.73411 1.2504689 0.0056046
 7818.53688 1.2416170 0.0055560
 7826.35202 1.2375606 0.0055626
 7834.17952 1.2281045 0.0056016
 7842.01880 1.2156456 0.0055630
 7849.85808 1.2004977 0.0056034
 7857.70914 1.1914088 0.0055447
 7865.57257 1.1816195 0.0055521
 7873.43599 1.1762640 0.0056131
 7881.31178 1.1698984 0.0056581
 7889.18699 1.1727810 0.0056002
 7897.07456 1.1741079 0.0055473
 7904.97449 1.1755725 0.0055797
 7912.88562 1.1844465 0.0056940
 7920.79733 1.1832035 0.0058095
 7928.72142 1.1837406 0.0058842
 7936.64491 1.1846622 0.0060199
 7944.58077 1.1845951 0.0062189
 7952.52840 1.1851416 0.0064088
 7960.48841 1.1869447 0.0066448
 7968.44841 1.1848507 0.0067490
 7976.40841 1.1889445 0.0068172
 7984.39197 1.1883302 0.0069677
 7992.37612 1.1828728 0.0069216
 8000.37204 1.1773975 0.0069287
 8008.36856 1.1757340 0.0069267
 8016.37626 1.1765465 0.0069926
 8024.39692 1.1759393 0.0069738
 8032.41699 1.1710261 0.0071049
 8040.44884 1.1640497 0.0069601
 8048.49364 1.1553316 0.0068838
 8056.53785 1.1430365 0.0068214
 8064.59385 1.1368839 0.0067919
 8072.66220 1.1278977 0.0068304
 8080.73115 1.1196024 0.0068322
 8088.81129 1.1134735 0.0068319
 8096.90379 1.1084601 0.0067255
 8104.99629 1.0966817 0.0066030
 8113.11294 1.0806839 0.0065469
 8121.21781 1.0751764 0.0063803
 8129.34624 1.0625337 0.0062359
 8137.47525 1.0531853 0.0061371
 8145.61604 1.0475246 0.0058836
 8153.75683 1.0419391 0.0057070
 8161.90940 1.0330058 0.0056625
 8170.07434 1.0235676 0.0056588
 8178.23928 1.0123107 0.0056386
 8186.42836 1.0051804 0.0057996
 8194.60566 0.9944571 0.0057529
 8202.80652 0.9845097 0.0057056
 8211.00797 0.9753604 0.0056634
 8219.22060 0.9693826 0.0056419
 8227.44619 0.9578548 0.0056632
 8235.67120 0.9438559 0.0057146
 8243.90857 0.9305381 0.0056624
 8252.14594 0.9125750 0.0056358
 8260.39508 0.8904082 0.0056382
 8268.65660 0.8758177 0.0057215
 8276.92989 0.8631873 0.0058016
 8285.20377 0.8392320 0.0057447
 8293.48884 0.8272708 0.0058317
 8301.78686 0.8189577 0.0058914
 8310.08430 0.8123989 0.0060183
 8318.40588 0.8062677 0.0062281
 8326.71568 0.8032556 0.0065860
 8335.04904 0.8031516 0.0070554
 8343.38299 0.8159061 0.0076796
 8351.71694 0.8286492 0.0080105
 8360.07444 0.8544835 0.0082849
 8368.43253 0.8875251 0.0084291
 8376.80240 0.9158800 0.0085378
 8385.18464 0.9361838 0.0083497
 8393.56628 0.9578426 0.0082914
 8401.96030 0.9731441 0.0076275
 8410.36668 0.9818772 0.0069997
 8418.77306 0.9944355 0.0065347
 8427.19122 1.0046582 0.0064139
 8435.62115 1.0098783 0.0062651
 8444.06346 1.0071156 0.0060953
 8452.50576 1.0072821 0.0060571
 8460.94806 1.0083752 0.0061581
 8469.41451 1.0066236 0.0062216
 8477.89273 0.9999220 0.0064720
 8486.35918 0.9961686 0.0064072
 8494.84977 0.9893615 0.0064407
 8503.35273 0.9835694 0.0064006
 8511.84332 0.9710612 0.0064381
 8520.35806 0.9663014 0.0063425
 8528.88457 0.9572246 0.0063803
 8537.41109 0.9490992 0.0064162
 8545.94997 0.9479998 0.0065240
 8554.50062 0.9394422 0.0066334
 8563.05187 0.9355239 0.0065113
 8571.61490 0.9332544 0.0064772
 8580.18970 0.9336187 0.0064900
 8588.76450 0.9286247 0.0066163
 8597.35167 0.9275437 0.0067404
 8605.95062 0.9232033 0.0068692
 8614.56193 0.9305472 0.0069429
 8623.17324 0.9386179 0.0070165
 8631.79634 0.9411958 0.0069969
 8640.43120 0.9486727 0.0070541
 8649.06666 0.9549997 0.0069885
 8657.72626 0.9598034 0.0070162
 8666.38528 0.9609404 0.0069937
 8675.04488 0.9541923 0.0068557
 8683.71626 0.9590155 0.0066453
 8692.41179 0.9621281 0.0065751
 8701.09553 0.9662077 0.0064261
 8709.80284 0.9703645 0.0064113
 8718.51073 0.9719126 0.0063608
 8727.23040 0.9797831 0.0063860
 8735.96243 0.9896419 0.0063307
 8744.69388 0.9980225 0.0062067
 8753.43769 1.0038652 0.0061673
 8762.19387 1.0191057 0.0061290
 8770.96124 1.0283329 0.0063218
 8779.72920 1.0502603 0.0062348
 8788.50952 1.0478222 0.0060674
 8797.30163 1.0512254 0.0059671
 8806.09373 1.0536236 0.0058657
 8814.89761 1.0531173 0.0058110
 8823.71385 1.0494471 0.0056352
 8832.54188 1.0389282 0.0055668
 8841.37049 1.0275438 0.0054629
 8850.21088 1.0154997 0.0054161
 8859.06305 1.0053426 0.0053331
 8867.92759 0.9931945 0.0052346
 8876.79153 0.9772094 0.0051265
 8885.66844 0.9643074 0.0051128
 8894.55712 0.9536800 0.0050626
 8903.45758 0.9408337 0.0050115
 8912.35803 0.9298182 0.0049853
 8921.27086 0.9253951 0.0049201
 8930.18309 0.9261278 0.0049060
 8939.12006 0.9193825 0.0048877
 8948.05703 0.9122054 0.0048452
 8957.00578 0.8997317 0.0048483
 8965.96689 0.8966581 0.0048676
 8974.92741 0.8906170 0.0048723
 8983.90031 0.8906038 0.0048701
 8992.88556 0.8858874 0.0048314
 9001.88260 0.8785854 0.0048510
 9010.89200 0.8726953 0.0048834
 9019.90081 0.8686347 0.0048694
 9028.92199 0.8662896 0.0048363
 9037.94317 0.8583026 0.0047476
 9046.98850 0.8470989 0.0047473
 9056.03382 0.8374477 0.0048181
 9065.09151 0.8248872 0.0049617
 9074.16098 0.8131756 0.0051873
 9083.23045 0.8063934 0.0054807
 9092.31170 0.7987291 0.0055541
 9101.40531 0.7774400 0.0055879
 9110.51070 0.7549875 0.0056379
 9119.61668 0.7338552 0.0057746
 9128.73444 0.7139874 0.0057943
 9137.86397 0.7012436 0.0058707
 9147.00588 0.6833771 0.0057546
 9156.14778 0.6756148 0.0057153
 9165.31382 0.6598057 0.0057524
 9174.47928 0.6524988 0.0058669
 9183.65770 0.6389584 0.0057747
 9192.83552 0.6371509 0.0059176
 9202.02571 0.6346939 0.0059869
 9211.22768 0.6340076 0.0060521
 9220.44201 0.6339136 0.0059724
 9229.66813 0.6403436 0.0059450
 9238.89424 0.6537727 0.0060374
 9248.13272 0.6794584 0.0062002
 9257.38298 0.7054858 0.0061677
 9266.63323 0.7241911 0.0058974
 9275.90764 0.7407731 0.0057174
 9285.18204 0.7609681 0.0055831
 9294.46881 0.7850506 0.0055131
 9303.76735 0.8032171 0.0053339
 9313.06590 0.8241809 0.0052549
 9322.38859 0.8363430 0.0050128
 9331.69950 0.8555824 0.0049938
 9341.03397 0.8661880 0.0049718
 9350.38081 0.8727357 0.0049216
 9359.72764 0.8795350 0.0047826
 9369.08684 0.8844113 0.0048305
 9378.45782 0.8885550 0.0048640
 9387.84058 0.8852246 0.0049272
 9397.22334 0.8822968 0.0047623
 9406.61846 0.8857839 0.0047316
 9416.02595 0.8856330 0.0048353
 9425.44522 0.8833739 0.0048699
 9434.86449 0.8761057 0.0049062
 9444.30731 0.8699414 0.0049447
 9453.75073 0.8637541 0.0050908
 9463.20650 0.8546698 0.0053132
 9472.67347 0.8487062 0.0056627
 9482.14103 0.8383388 0.0058646
 9491.62037 0.8291966 0.0059353
 9501.12443 0.8217224 0.0058987
 9510.61555 0.8202363 0.0057533
 9520.13139 0.8150104 0.0055990
 9529.64724 0.8088666 0.0055387
 9539.18723 0.8061255 0.0053986
 9548.72663 0.8020512 0.0051685
 9558.26662 0.7917954 0.0047969
 9567.83076 0.7843236 0.0046415
 9577.39430 0.7743609 0.0045946
 9586.97021 0.7691122 0.0046783
 9596.55849 0.7552014 0.0049297
 9606.15855 0.7459169 0.0051479
 9615.75861 0.7378874 0.0052434
 9625.38281 0.7280469 0.0053031
 9635.00701 0.7169316 0.0053513
 9644.64358 0.7093140 0.0055471
 9654.29193 0.7014505 0.0055450
 9663.94027 0.6946042 0.0057318
 9673.61276 0.6865267 0.0057303
 9683.28525 0.6861878 0.0059015
 9692.95774 0.6901896 0.0056240
 9702.65379 0.6882052 0.0059741
 9712.36279 0.6924013 0.0058702
 9722.07120 0.6896098 0.0059709
 9731.80435 0.6917714 0.0061229
 9741.52454 0.6886083 0.0062707
 9751.26946 0.6891143 0.0062788
 9761.02675 0.6803962 0.0061659
 9770.78345 0.6774537 0.0062702
 9780.55252 0.6773436 0.0063585
 9790.33337 0.6754157 0.0066062
 9800.12658 0.6738796 0.0062176
 9809.93157 0.6772521 0.0059514
 9819.73656 0.6792295 0.0057305
 9829.55392 0.6851549 0.0056708
 9839.39542 0.6931336 0.0055418
 9849.22455 0.7045693 0.0058372
 9859.07783 0.7071097 0.0055242
 9868.94348 0.7179034 0.0054884
 9878.80853 0.7229358 0.0052620
 9888.68655 0.7273994 0.0053434
 9898.57634 0.7311952 0.0050885
 9908.47790 0.7320059 0.0048908
 9918.39125 0.7279658 0.0048524
 9928.30460 0.7183945 0.0047192
 9938.23090 0.7055936 0.0045958
 9948.16780 0.6893766 0.0044660
 9958.11766 0.6760670 0.0044190
 9968.08047 0.6633087 0.0044132
 9978.04210 0.6440617 0.0043136
 9988.02847 0.6242872 0.0041894
 9998.01366 0.6113396 0.0041408
 10008.01181 0.6015960 0.0041065
 10018.02173 0.5946919 0.0041721
 10028.04461 0.5873498 0.0042406
 10038.06631 0.5811231 0.0042828
 10048.10097 0.5814693 0.0041713
 10058.15918 0.5926965 0.0041906
 10068.20561 0.6053535 0.0042131
 10078.27678 0.6241580 0.0043172
 10088.35855 0.6494928 0.0043832
 10098.45327 0.6680068 0.0044131
 10108.54799 0.6867138 0.0044119
 10118.65449 0.7125050 0.0044714
 10128.77277 0.7380840 0.0045317
 10138.90401 0.7655351 0.0046895
 10149.04702 0.7958849 0.0046979
 10159.19003 0.8215587 0.0046607
 10169.35660 0.8467283 0.0047214
 10179.52317 0.8732287 0.0048518
 10189.70269 0.9003482 0.0051315
 10199.89399 0.9282025 0.0054960
 10210.09707 0.9450566 0.0060377
 10220.31193 0.9604388 0.0067473
 10230.52678 0.9896332 0.0072708
 10240.75460 1.0159762 0.0077367
 10250.99418 1.0456100 0.0081642
 10261.24555 1.0642881 0.0080221
 10271.50870 1.0910259 0.0081687
 10281.78362 1.1130199 0.0076846
 10292.07150 1.1265011 0.0073548
 10302.35938 1.1432008 0.0073141
 10312.65903 1.1614631 0.0074766
 10322.97047 1.1749218 0.0075721
 10333.29368 1.1869963 0.0078552
 10343.62985 1.2078383 0.0075263
 10353.97779 1.2204828 0.0077620
 10364.32574 1.2392781 0.0077565
 10374.69724 1.2486337 0.0079583
 10385.06992 1.2604895 0.0084372
 10395.45320 1.2835531 0.0091681
 10405.84943 1.2880849 0.0093741
 10416.25744 1.2896622 0.0086387
 10426.67841 1.2924192 0.0083514
 10437.09820 1.2803775 0.0082058
 10447.54272 1.2712979 0.0083870
 10457.98724 1.2552481 0.0080445
 10468.44355 1.2415948 0.0079341
 10478.91162 1.2129936 0.0074557
 10489.39266 1.1858338 0.0072578
 10499.88429 1.1585493 0.0071527
 10510.37710 1.1312925 0.0071073
 10520.89465 1.1027731 0.0067906
 10531.42279 1.0670255 0.0062593
 10541.93916 1.0285892 0.0062741
 10552.49204 0.9952464 0.0060723
 10563.04492 0.9665731 0.0059336
 10573.61075 0.9350808 0.0059675
 10584.18719 0.9029769 0.0059596
 10594.76480 0.8740779 0.0060900
 10605.36479 0.8506751 0.0063930
 10615.96595 0.8264630 0.0069626
 10626.58008 0.8011076 0.0070674
 10637.20480 0.7923980 0.0069976
 10647.85426 0.7771236 0.0067864
 10658.49193 0.7662469 0.0066550
 10669.15317 0.7583360 0.0065452
 10679.82618 0.7484222 0.0064996
 10690.51215 0.7477021 0.0064520
 10701.19811 0.7404281 0.0063792
 10711.89468 0.7324483 0.0062499
 10722.60538 0.7235754 0.0061180
 10733.33846 0.7163888 0.0060527
 10744.05976 0.7101517 0.0061039
 10754.80579 0.7024228 0.0061374
 10765.56360 0.6971964 0.0062105
 10776.33437 0.6890885 0.0063528
 10787.11574 0.6780605 0.0064343
 10797.89828 0.6603689 0.0065768
 10808.69261 0.6484945 0.0066772
 10819.51048 0.6343975 0.0069020
 10830.32836 0.6283450 0.0071208
 10841.15920 0.6161234 0.0072794
 10852.00063 0.5966443 0.0075050
 10862.85502 0.5830896 0.0076296
 10873.70941 0.5699483 0.0077590
 10884.58853 0.5598971 0.0080022
 10895.47943 0.5465211 0.0082621
 10906.36915 0.5342026 0.0086024
 10917.27183 0.5166710 0.0090738
 10928.19924 0.5046144 0.0093355
 10939.12548 0.4882995 0.0092582
 10950.06466 0.4744843 0.0092884
 10961.01563 0.4649670 0.0093018
 10971.97838 0.4559864 0.0093994
 10982.95290 0.4538701 0.0094946
 10993.92860 0.4509171 0.0097314
 11004.92785 0.4489248 0.0098175
 11015.92711 0.4378627 0.0098405
 11026.94992 0.4320888 0.0101962
 11037.97273 0.4235650 0.0101719
 11049.00850 0.4211282 0.0103476
 11060.06782 0.4170733 0.0106582
 11071.12714 0.4104818 0.0107666
 11082.19824 0.4114829 0.0112811
 11093.28230 0.4053361 0.0114759
 11104.37813 0.4125441 0.0120264
 11115.47397 0.4184344 0.0134683
 11126.59335 0.4134497 0.0140733
 11137.71274 0.4033239 0.0150117
 11148.85687 0.3964590 0.0161093
 11160.00099 0.3926878 0.0174932
 11171.16867 0.3879632 0.0192829
 11182.33634 0.3832014 0.0219052
 11193.52875 0.3764950 0.0261499
 11204.72117 0.3595291 0.0321262
 11215.92418 0.3515045 0.0355598
 11227.14132 0.3382243 0.0376731
 11238.36907 0.3226445 0.0430474
