# SOURCE  = 'Quimby et al. 2018' /                                                
# OBJECT  = 'PTF10hgi'           /                                                
# Z       =            0.0982000 / wavelengths in OBSERVER FRAME                 
# NORM    =             0.117439 / fluxes divided by norm                         
# CLIPPED =                    1 / galaxy emission lines removed                  
# SMOOTHED=                    1 / spectrum has been smoothed                     
# COLUMN01= 'Wavelength (Angstrom)' /                                             
# COLUMN02= 'Flux Density (erg/s/cm2/A)' /                                        
# COLUMN03= 'Flux Density Uncertainty (erg/s/cm2/A)' /                            
# END                                                                             
# 
# 
# 
# 
# 
# 
# 
# 
# 
# 
# Converted to Observer Frame using z=0.0982
 3899.36687 1.9554582 0.2542270
 3903.26237 2.0127292 0.1684626
 3907.16994 2.0168283 0.1574440
 3911.07751 2.0255568 0.1313978
 3914.98507 2.0478959 0.1021723
 3918.90471 2.0365620 0.0988334
 3922.82435 2.0423436 0.0895857
 3926.74400 2.0391934 0.0800789
 3930.66364 2.0506361 0.0776877
 3934.59535 2.0782022 0.0723966
 3938.53913 2.0838077 0.0712454
 3942.47085 2.0625999 0.0689529
 3946.41463 2.0941119 0.0664423
 3950.35842 2.1109912 0.0643889
 3954.31427 2.1338866 0.0658155
 3958.27013 2.1340871 0.0652255
 3962.22599 2.1576915 0.0631730
 3966.19392 2.1358705 0.0646789
 3970.14948 2.0904546 0.0640559
 3974.12948 2.0716660 0.0635121
 3978.09741 2.0683277 0.0615374
 3982.07741 2.0868278 0.0629348
 3986.05741 2.0323989 0.0623566
 3990.04919 2.0115585 0.0603799
 3994.04127 2.0259025 0.0599505
 3998.03334 2.0078330 0.0612515
 4002.02541 1.9870573 0.0607128
 4006.02927 1.9783260 0.0588072
 4010.03341 1.9681298 0.0584086
 4014.04963 1.9519396 0.0596244
 4018.06585 1.9434628 0.0577135
 4022.08177 1.9216592 0.0572803
 4026.09799 1.9149209 0.0585894
 4030.12628 1.9099730 0.0580495
 4034.15428 1.9082097 0.0562037
 4038.19464 1.9021468 0.0557964
 4042.23471 1.8922127 0.0570340
 4046.27507 1.9263428 0.0565237
 4050.31543 1.9417549 0.0547382
 4054.36757 1.9639144 0.0543531
 4058.42001 1.9688385 0.0555288
 4062.48422 1.9632427 0.0537340
 4066.54873 1.9503397 0.0533144
 4070.61294 1.9134821 0.0529486
 4074.68952 1.9136323 0.0540714
 4078.76580 1.8902769 0.0523317
 4082.84238 1.8842272 0.0519309
 4086.91867 1.8697613 0.0515815
 4091.00732 1.8725654 0.0526598
 4095.09568 1.8634034 0.0509713
 4099.19611 1.8843354 0.0505863
 4103.29683 1.8819351 0.0502506
 4107.39726 1.8710212 0.0512923
 4111.51006 1.8791939 0.0496511
 4115.61048 1.8651189 0.0492797
 4119.73506 1.8621800 0.0489552
 4123.84785 1.8393916 0.0486787
 4127.97243 1.8322198 0.0483707
 4132.10907 1.8157452 0.0480104
 4136.23394 1.8030226 0.0476951
 4140.37059 1.8153567 0.0462814
 4144.50723 1.8106149 0.0471293
 4148.65595 1.8032815 0.0467783
 4152.80496 1.8176157 0.0464700
 4156.96575 1.8072368 0.0451027
 4161.11447 1.8055224 0.0459268
 4165.27526 1.7727913 0.0455832
 4169.44812 1.7638592 0.0452802
 4173.60921 1.7610887 0.0439633
 4177.78207 1.7579257 0.0447630
 4181.96701 1.7500300 0.0444252
 4186.15194 1.7779187 0.0441261
 4190.33688 1.7951682 0.0428634
 4194.52181 1.8224684 0.0425031
 4198.71882 1.8340976 0.0433048
 4202.91582 1.8738365 0.0430081
 4207.12520 1.8552417 0.0418030
 4211.33428 1.8635429 0.0414481
 4215.54336 1.8799971 0.0422225
 4219.75244 1.8806063 0.0419272
 4223.97359 1.8881466 0.0407823
 4228.19474 1.8898221 0.0404316
 4232.42796 1.8966798 0.0401112
 4236.66119 1.9143091 0.0408837
 4240.89441 1.9472364 0.0406220
 4245.13941 1.9680725 0.0394542
 4249.38471 2.0062788 0.0391359
 4253.63000 2.0074522 0.0398791
 4257.88737 2.0332675 0.0396150
 4262.14474 2.0514653 0.0385166
 4266.41418 2.0543520 0.0381995
 4270.67155 2.0478344 0.0379095
 4274.94099 2.0639250 0.0386470
 4279.22220 2.0670550 0.0376194
 4283.50372 2.0627525 0.0373027
 4287.78523 2.0618906 0.0370122
 4292.06674 2.0881841 0.0367470
 4296.36033 2.0952253 0.0374770
 4300.65362 2.1065416 0.0364465
 4304.95927 2.1253772 0.0361548
 4309.26493 2.1175489 0.0358875
 4313.58236 2.0844412 0.0356439
 4317.88802 2.0790265 0.0356319
 4322.20575 2.0822902 0.0353384
 4326.53526 2.0680106 0.0350685
 4330.85299 2.0661321 0.0348214
 4335.18279 2.0621750 0.0338454
 4339.52437 2.0542421 0.0345640
 4343.86624 2.0428455 0.0342911
 4348.20811 2.0474615 0.0340402
 4352.56176 2.0316167 0.0338107
 4356.90364 2.0327730 0.0328688
 4361.26936 2.0336132 0.0335564
 4365.62331 2.0273068 0.0333014
 4369.98903 2.0165541 0.0330670
 4374.36712 2.0027680 0.0328528
 4378.73284 1.9970251 0.0319421
 4383.11093 1.9794993 0.0326063
 4387.50080 1.9669639 0.0323668
 4391.89096 1.9632041 0.0321468
 4396.28083 1.9554259 0.0312455
 4400.68307 1.9622046 0.0310633
 4405.07293 1.9778419 0.0317114
 4409.48695 1.9749038 0.0314854
 4413.88918 1.9806348 0.0312776
 4418.30319 1.9864097 0.0304034
 4422.72928 1.9756831 0.0302313
 4427.14358 1.9899021 0.0300752
 4431.58174 2.0033708 0.0306557
 4436.00783 2.0202091 0.0304584
 4440.44628 2.0280578 0.0296086
 4444.88443 2.0506158 0.0294451
 4449.33466 2.0743458 0.0292966
 4453.77282 2.0816870 0.0298765
 4458.23541 2.1150954 0.0296883
 4462.68564 2.1263368 0.0288604
 4467.16002 2.1539018 0.0287041
 4471.62232 2.1823230 0.0285619
 4476.09669 2.1906624 0.0284339
 4480.57136 2.1993105 0.0289666
 4485.04573 2.2036710 0.0281583
 4489.53218 2.2095420 0.0280082
 4494.03070 2.2030840 0.0278712
 4498.51714 2.1991968 0.0277474
 4503.01566 2.1994879 0.0276369
 4507.52625 2.1896405 0.0275024
 4512.02477 2.1614099 0.0273572
 4516.54743 2.1444256 0.0272245
 4521.05802 2.1096363 0.0271040
 4525.58068 2.0820735 0.0269960
 4530.10334 2.0444136 0.0269002
 4534.63808 2.0231686 0.0267516
 4539.17281 1.9896852 0.0266222
 4543.70755 1.9634635 0.0265044
 4548.25435 1.9207138 0.0263980
 4552.80116 1.8910173 0.0263031
 4557.36004 1.8731664 0.0256007
 4561.90684 1.8593152 0.0260649
 4566.47780 1.8602834 0.0259489
 4571.03667 1.8446856 0.0258437
 4575.60733 1.8348603 0.0257492
 4580.19035 1.8352382 0.0256653
 4584.77338 1.8294221 0.0249812
 4589.35640 1.8187324 0.0254386
 4593.93942 1.8023635 0.0253340
 4598.53422 1.8045969 0.0252393
 4603.14139 1.8237514 0.0251545
 4607.73649 1.8160315 0.0245301
 4612.34365 1.8162930 0.0244198
 4616.96260 1.8339275 0.0243181
 4621.58184 1.8404827 0.0247747
 4626.20108 1.8493837 0.0246888
 4630.82003 1.8670332 0.0246120
 4635.45134 1.8585806 0.0240152
 4640.09472 1.8473098 0.0239141
 4644.73781 1.8326825 0.0238208
 4649.38120 1.8271275 0.0237354
 4654.02429 1.8306282 0.0241904
 4658.67974 1.8266494 0.0241200
 4663.33490 1.8343875 0.0235559
 4668.00243 1.8510386 0.0234624
 4672.66967 1.8826141 0.0233762
 4677.34927 1.9066210 0.0232973
 4682.01650 1.9353791 0.0232255
 4686.70818 1.9451400 0.0236777
 4691.38748 1.9487689 0.0231509
 4696.07915 1.9698004 0.0230636
 4700.78261 1.9868321 0.0229831
 4705.48635 2.0045602 0.0229095
 4710.18980 2.0321703 0.0228424
 4714.89325 2.0626640 0.0232847
 4719.60907 2.0946412 0.0238726
 4724.33667 2.1134243 0.0241240
 4729.05219 2.1212595 0.0245980
 4733.79215 2.1528213 0.0259389
 4738.51975 2.1881101 0.0265366
 4743.25941 2.1969690 0.0230868
 4747.99937 2.2061551 0.0232268
 4752.75111 2.1949477 0.0238888
 4757.50285 2.2022939 0.0246461
 4762.26667 2.2030351 0.0254835
 4767.01870 2.1951096 0.0264699
 4771.79458 2.2098892 0.0274995
 4776.55840 2.2107656 0.0284351
 4781.33428 2.2381158 0.0291197
 4786.12224 2.2537658 0.0304621
 4790.91019 2.2451358 0.0282904
 4795.69815 2.2434101 0.0277399
 4800.49847 2.2297409 0.0279310
 4805.29850 2.2048371 0.0270309
 4810.09853 2.1806073 0.0261036
 4814.91063 2.1616457 0.0252586
 4819.72273 2.1339457 0.0245798
 4824.54690 2.1245775 0.0226551
 4829.37108 2.1133101 0.0221906
 4834.19525 2.0967715 0.0222442
 4839.03150 2.0631430 0.0253913
 4843.86774 2.0453055 0.0244070
 4848.71606 2.0298729 0.0237453
 4853.56438 2.0144370 0.0226974
 4858.42447 2.0052857 0.0221365
 4863.27279 1.9951947 0.0215052
 4868.14525 1.9878293 0.0210080
 4873.01771 1.9760102 0.0209924
 4877.89017 1.9623572 0.0209804
 4882.76263 1.9786698 0.0209721
 4887.64687 1.9704018 0.0213907
 4892.53141 1.9820236 0.0213657
 4897.42801 1.9883058 0.0213444
 4902.32462 1.9912755 0.0208493
 4907.22123 2.0014315 0.0208345
 4912.12961 2.0022292 0.0208229
 4917.05036 2.0040979 0.0208144
 4921.95904 2.0071979 0.0208091
 4926.89157 2.0168333 0.0208067
 4931.81232 2.0292287 0.0208074
 4936.74514 2.0283935 0.0208111
 4941.67796 2.0285563 0.0207224
 4946.62227 2.0313139 0.0207103
 4951.56717 2.0366306 0.0207008
 4956.52443 2.0302231 0.0206941
 4961.48110 2.0276940 0.0206900
 4966.43777 2.0255303 0.0206885
 4971.40681 2.0242693 0.0206895
 4976.37585 2.0166929 0.0206931
 4981.35667 2.0155859 0.0206990
 4986.33749 2.0170672 0.0202461
 4991.31830 2.0092204 0.0206248
 4996.31149 2.0020652 0.0211936
 5001.31645 1.9931413 0.0216161
 5006.30963 1.9921973 0.0225211
 5011.32696 1.9999745 0.0230332
 5016.33192 1.9811718 0.0246040
 5021.34925 1.9673748 0.0214981
 5026.36599 1.9537364 0.0214710
 5031.39510 1.9407398 0.0219392
 5036.42479 1.9334955 0.0221828
 5041.46568 1.9269468 0.0229627
 5046.50715 1.9182645 0.0238110
 5051.56040 1.9204289 0.0246561
 5056.60187 1.9199660 0.0254096
 5061.66690 1.8976674 0.0259762
 5066.72015 1.8709878 0.0268023
 5071.78577 1.8557619 0.0269835
 5076.86316 1.8335488 0.0264843
 5081.94056 1.8332779 0.0257418
 5087.01795 1.8194505 0.0248682
 5092.10771 1.8102540 0.0235355
 5097.19689 1.7966928 0.0227851
 5102.29843 1.7934849 0.0221126
 5107.39997 1.7877147 0.0215757
 5112.51387 1.7860085 0.0212605
 5117.62719 1.7848287 0.0214334
 5122.74110 1.7834821 0.0244477
 5127.86678 1.7797353 0.0227492
 5132.99246 1.7745254 0.0221746
 5138.12992 1.7669637 0.0212511
 5143.26797 1.7672001 0.0207739
 5148.40544 1.7793679 0.0202252
 5153.55526 1.7845671 0.0202328
 5158.70509 1.7937297 0.0198140
 5163.86729 1.8003386 0.0202337
 5169.02889 1.8188250 0.0202328
 5174.20287 1.8229696 0.0202329
 5179.37684 1.8348114 0.0202337
 5184.55081 1.8234967 0.0202352
 5189.73656 1.8140618 0.0202375
 5194.93468 1.8055731 0.0202405
 5200.12102 1.8071629 0.0202440
 5205.33091 1.7922961 0.0202483
 5210.52903 1.7808610 0.0202531
 5215.73892 1.7645864 0.0202584
 5220.96119 1.7573826 0.0202643
 5226.18345 1.7494036 0.0202708
 5231.40571 1.7411230 0.0202776
 5236.63975 1.7289605 0.0198568
 5241.87379 1.7070827 0.0198642
 5247.12019 1.6987301 0.0198719
 5252.36660 1.6871434 0.0198801
 5257.61300 1.6744815 0.0198886
 5262.87119 1.6585000 0.0198973
 5268.14174 1.6494956 0.0199064
 5273.39992 1.6470531 0.0199158
 5278.68225 1.6498097 0.0199253
 5283.95280 1.6581365 0.0199352
 5289.23513 1.6566197 0.0199452
 5294.52982 1.6617649 0.0199554
 5299.82452 1.6604429 0.0199657
 5305.13099 1.6548392 0.0199762
 5310.42569 1.6596619 0.0199868
 5315.74394 1.6518227 0.0203531
 5321.06277 1.6580206 0.0203586
 5326.38161 1.6564249 0.0203644
 5331.69986 1.6686645 0.0203704
 5337.04285 1.6683263 0.0203765
 5342.37346 1.6717868 0.0199524
 5347.71645 1.6848882 0.0199587
 5353.07121 1.6980567 0.0199651
 5358.41419 1.7060307 0.0199716
 5363.78073 1.7169511 0.0199782
 5369.13549 1.7177051 0.0199849
 5374.51440 1.7204044 0.0199917
 5379.88153 1.7247514 0.0199985
 5385.27280 1.7336923 0.0200053
 5390.65171 1.7315843 0.0200121
 5396.04239 1.7260402 0.0200190
 5401.44544 1.7330714 0.0200258
 5406.83671 1.7285986 0.0200326
 5412.25154 1.7376837 0.0200395
 5417.65459 1.7296191 0.0200462
 5423.08178 1.7289912 0.0200530
 5428.49720 1.7267799 0.0200596
 5433.92440 1.7232000 0.0200662
 5439.36337 1.7304841 0.0200727
 5444.80293 1.7431087 0.0200791
 5450.25427 1.7501327 0.0200855
 5455.69324 1.7545551 0.0200917
 5461.15695 1.7539213 0.0200978
 5466.62006 1.7612894 0.0201038
 5472.08377 1.7680349 0.0201097
 5477.55866 1.7723278 0.0201154
 5483.03415 1.7823507 0.0201210
 5488.52200 1.7855544 0.0201264
 5494.00926 1.7941636 0.0201317
 5499.49711 1.8121210 0.0201369
 5504.99615 1.8110007 0.0201419
 5510.50814 1.8109057 0.0201468
 5516.01955 1.8070014 0.0201515
 5521.53154 1.8042105 0.0201560
 5527.05472 1.7978348 0.0201604
 5532.57850 1.8016897 0.0198160
 5538.11464 1.8059959 0.0198199
 5543.65019 1.7943012 0.0198237
 5549.19810 1.7868937 0.0198274
 5554.74543 1.7704833 0.0198309
 5560.30571 1.7677259 0.0198343
 5565.86541 1.7581986 0.0198374
 5571.42510 1.7494067 0.0198405
 5576.99716 1.7426080 0.0198434
 5582.58100 1.7378474 0.0198461
 5588.16543 1.7187638 0.0198487
 5593.74927 1.7098796 0.0198512
 5599.34547 1.6984010 0.0198535
 5604.94109 1.6892426 0.0198557
 5610.54907 1.6780882 0.0198578
 5616.15765 1.6652448 0.0198597
 5621.77741 1.6503692 0.0198616
 5627.39776 1.6347016 0.0198633
 5633.02989 1.6275831 0.0198649
 5638.65024 1.6044964 0.0198665
 5644.29414 1.5738624 0.0198679
 5649.93864 1.5626622 0.0198693
 5655.59491 1.5464714 0.0198706
 5661.25118 1.5347234 0.0198718
 5666.90745 1.5225049 0.0198731
 5672.57609 1.5032363 0.0198742
 5678.24473 1.4829037 0.0198754
 5683.92515 1.4677060 0.0198765
 5689.60556 1.4405602 0.0198776
 5695.29776 1.4306490 0.0195338
 5701.00232 1.4242152 0.0195297
 5706.69510 1.4119045 0.0195254
 5712.39966 1.3940887 0.0195211
 5718.11659 1.3919823 0.0195166
 5723.83293 1.3857226 0.0195121
 5729.56163 1.3886492 0.0195075
 5735.29034 1.3867590 0.0195029
 5741.03141 1.3961827 0.0194982
 5746.76012 1.3949486 0.0194936
 5752.51297 1.3915994 0.0194889
 5758.26523 1.3839616 0.0194842
 5764.03044 1.3822165 0.0194796
 5769.79507 1.3832231 0.0194750
 5775.56029 1.3827639 0.0194705
 5781.33728 1.3828924 0.0194660
 5787.11428 1.3767879 0.0194617
 5792.90305 1.3900321 0.0191399
 5798.69182 1.3865775 0.0191356
 5804.49296 1.3850247 0.0191316
 5810.30646 1.3787403 0.0194884
 5816.11938 1.3769720 0.0194766
 5821.93230 1.3856045 0.0194649
 5827.74580 1.3869197 0.0194532
 5833.58286 1.3818473 0.0194417
 5839.40815 1.3932109 0.0194305
 5845.24521 1.3943410 0.0194193
 5851.09463 1.3967388 0.0194083
 5856.94406 1.3961549 0.0193976
 5862.80527 1.3981162 0.0193871
 5868.66647 1.4060276 0.0190583
 5874.54004 1.4125129 0.0190485
 5880.41362 1.4177753 0.0190390
 5886.28719 1.4277143 0.0190297
 5892.18432 1.4406379 0.0190207
 5898.07025 1.4473526 0.0193306
 5903.96738 1.4554600 0.0198141
 5909.87746 1.4643923 0.0201862
 5915.78696 1.4832549 0.0210170
 5921.69645 1.5004570 0.0220730
 5927.63009 1.5179580 0.0226858
 5933.55195 1.5475106 0.0197043
 5939.48559 1.5606354 0.0198258
 5945.43160 1.5684086 0.0203644
 5951.36523 1.5743847 0.0210935
 5957.32302 1.6033958 0.0219476
 5963.28080 1.6127599 0.0228839
 5969.23858 1.6424592 0.0238532
 5975.20873 1.6543996 0.0247904
 5981.19066 1.6575845 0.0256165
 5987.17259 1.6661328 0.0262478
 5993.15451 1.6810822 0.0253989
 5999.14881 1.6803114 0.0248610
 6005.15488 1.6774036 0.0253262
 6011.16095 1.6712618 0.0243335
 6017.16702 1.6509950 0.0233295
 6023.18487 1.6308429 0.0223722
 6029.20331 1.6265316 0.0215060
 6035.23353 1.6312387 0.0207726
 6041.27552 1.6231933 0.0202411
 6047.31811 1.6152457 0.0201568
 6053.36010 1.6079674 0.0225693
 6059.41446 1.6108632 0.0217928
 6065.46882 1.6182132 0.0204651
 6071.53496 1.6227498 0.0199421
 6077.61346 1.6338879 0.0192442
 6083.69197 1.6383876 0.0188380
 6089.78284 1.6374172 0.0184477
 6095.86135 1.6355786 0.0184255
 6101.96400 1.6346452 0.0180864
 6108.06606 1.6454654 0.0180539
 6114.16871 1.6511698 0.0180224
 6120.28372 1.6518009 0.0179917
 6126.40993 1.6474237 0.0179619
 6132.53672 1.6444072 0.0179332
 6138.66351 1.6453737 0.0182200
 6144.80209 1.6399692 0.0181924
 6150.95302 1.6318783 0.0178586
 6157.10396 1.6198038 0.0178203
 6163.25490 1.6086287 0.0177832
 6169.41762 1.5962036 0.0177472
 6175.59270 1.5831894 0.0177123
 6181.76778 1.5783279 0.0176785
 6187.95464 1.5789721 0.0176459
 6194.14150 1.5661544 0.0176302
 6200.32836 1.5712148 0.0175857
 6206.53996 1.5813652 0.0175424
 6212.73860 1.5855105 0.0175005
 6218.95019 1.5916766 0.0174598
 6225.17297 1.6059608 0.0174204
 6231.39634 1.6130193 0.0173824
 6237.63149 1.6204575 0.0170633
 6243.86664 1.6222897 0.0170283
 6250.11416 1.6242481 0.0172661
 6256.36109 1.6265337 0.0172189
 6262.62097 1.6246737 0.0171731
 6268.88026 1.6183132 0.0171289
 6275.15133 1.6085809 0.0168061
 6281.42299 1.6021793 0.0167656
 6287.70643 1.5951610 0.0167265
 6294.00224 1.5942063 0.0166890
 6300.28567 1.5861650 0.0169028
 6306.59326 1.5773567 0.0168531
 6312.90084 1.5686996 0.0165275
 6319.20842 1.5631855 0.0164822
 6325.52778 1.5555612 0.0164386
 6331.85951 1.5513396 0.0163967
 6338.19124 1.5506130 0.0163565
 6344.52296 1.5451866 0.0165553
 6350.86706 1.5503210 0.0162284
 6357.22293 1.5508256 0.0161791
 6363.57880 1.5559295 0.0161317
 6369.94645 1.5526888 0.0160862
 6376.31469 1.5483569 0.0163148
 6382.69411 1.5525638 0.0166928
 6389.07413 1.5514203 0.0173042
 6395.46651 1.5453247 0.0176411
 6401.85831 1.5424796 0.0185118
 6408.26247 1.5321101 0.0190385
 6414.66663 1.5112569 0.0166511
 6421.08257 1.4965947 0.0166654
 6427.51087 1.4776530 0.0168296
 6433.93917 1.4678166 0.0174552
 6440.36748 1.4505044 0.0181018
 6446.80756 1.4415029 0.0187798
 6453.26001 1.4302150 0.0194518
 6459.71246 1.4103957 0.0195695
 6466.17669 1.4035769 0.0199831
 6472.62914 1.3820955 0.0209034
 6479.10573 1.3774866 0.0207928
 6485.59410 1.3605574 0.0199053
 6492.07069 1.3620321 0.0186148
 6498.57084 1.3629316 0.0179173
 6505.05980 1.3678705 0.0172554
 6511.57232 1.3683801 0.0168121
 6518.08483 1.3634880 0.0162407
 6524.59735 1.3535678 0.0157730
 6531.12223 1.3539015 0.0154762
 6537.65889 1.3500943 0.0155322
 6544.19555 1.3511107 0.0182901
 6550.74458 1.3555720 0.0169500
 6557.29302 1.3514787 0.0160222
 6563.85441 1.3459711 0.0155316
 6570.41522 1.3454098 0.0149985
 6576.98780 1.3422701 0.0146103
 6583.56097 1.3355232 0.0143130
 6590.14592 1.3279324 0.0141193
 6596.73087 1.3279196 0.0139937
 6603.32818 1.3213866 0.0138711
 6609.93728 1.3102293 0.0137547
 6616.54637 1.3048337 0.0133939
 6623.16724 1.2962894 0.0135007
 6629.78870 1.2914019 0.0134319
 6636.42194 1.2884364 0.0133939
 6643.05518 1.2775590 0.0133967
 6649.70019 1.2697854 0.0132351
 6656.34580 1.2691579 0.0131681
 6663.00318 1.2631412 0.0131044
 6669.66056 1.2546105 0.0130439
 6676.32972 1.2505801 0.0127729
 6683.01125 1.2390394 0.0127195
 6689.69277 1.2277246 0.0128409
 6696.38608 1.2211951 0.0127784
 6703.07997 1.2208096 0.0125095
 6709.78564 1.2166114 0.0124546
 6716.50309 1.2154062 0.0124028
 6723.20876 1.2127295 0.0125144
 6729.93858 1.2081757 0.0124539
 6736.66781 1.2028327 0.0121920
 6743.40999 1.1981274 0.0121391
 6750.15158 1.1938322 0.0120895
 6756.89317 1.1910725 0.0121906
 6763.65950 1.1932830 0.0119319
 6770.42524 1.1864487 0.0118785
 6777.19098 1.1837240 0.0118284
 6783.96908 1.1821113 0.0117816
 6790.74718 1.1794122 0.0116749
 6797.53707 1.1757394 0.0116214
 6804.33932 1.1680436 0.0115712
 6811.14098 1.1588620 0.0115245
 6817.95559 1.1488364 0.0114216
 6824.78140 1.1357504 0.0113683
 6831.59601 1.1240519 0.0113186
 6838.43418 1.1058725 0.0112723
 6845.27235 1.0860447 0.0111726
 6852.11052 1.0669372 0.0111201
 6858.97284 1.0503758 0.0110712
 6865.82338 1.0319777 0.0108340
 6872.69747 1.0145524 0.0107800
 6879.57215 0.9990695 0.0108773
 6886.44683 0.9827898 0.0108296
 6893.33329 0.9705113 0.0105977
 6900.23153 0.9600223 0.0105452
 6907.13036 0.9467304 0.0106409
 6914.04096 0.9394243 0.0105948
 6920.95157 0.9395450 0.0103675
 6927.87395 0.9397461 0.0103169
 6934.79692 0.9394018 0.0104116
 6941.73167 0.9380920 0.0101965
 6948.67819 0.9415767 0.0101444
 6955.62531 0.9518067 0.0100960
 6962.58420 0.9575366 0.0101904
 6969.54310 0.9695123 0.0099788
 6976.51377 0.9806485 0.0099293
 6983.48503 0.9884169 0.0098836
 6990.47984 1.0070620 0.0098202
 6997.46288 1.0144458 0.0097697
 7004.47006 1.0183226 0.0097232
 7011.46488 1.0219890 0.0096805
 7018.48442 1.0286396 0.0096173
 7025.50338 1.0338290 0.0095702
 7032.52234 1.0364535 0.0095271
 7039.55367 1.0397753 0.0093408
 7046.59736 1.0359737 0.0094247
 7053.64047 1.0381716 0.0093814
 7060.69594 1.0453062 0.0091978
 7067.76319 1.0461522 0.0091632
 7074.83043 1.0480130 0.0092435
 7081.89768 1.0471935 0.0092043
 7088.98966 1.0431535 0.0090286
 7096.06869 1.0392683 0.0091137
 7103.17245 1.0400913 0.0090748
 7110.27621 1.0417752 0.0089023
 7117.37997 1.0443287 0.0088724
 7124.50729 1.0463027 0.0089537
 7131.62341 1.0560360 0.0087845
 7138.76309 1.0564253 0.0087555
 7145.90277 1.0604730 0.0088413
 7153.04246 1.0675956 0.0086756
 7160.19450 1.0715019 0.0086476
 7167.35833 1.0751736 0.0086237
 7174.52216 1.0820345 0.0085757
 7181.69776 1.0784138 0.0085490
 7188.88632 1.0723205 0.0085264
 7196.07429 1.0712945 0.0086127
 7203.26226 1.0693303 0.0084600
 7210.47438 1.0643533 0.0084390
 7217.68649 1.0566956 0.0084222
 7224.89861 1.0547223 0.0083807
 7232.12250 1.0521579 0.0083615
 7239.35876 1.0495380 0.0083466
 7246.59502 1.0405755 0.0083115
 7253.84364 1.0324436 0.0082944
 7261.10405 1.0269982 0.0082816
 7268.36445 1.0244168 0.0082528
 7275.63663 1.0209410 0.0082379
 7282.90940 1.0149252 0.0081063
 7290.19395 1.0121112 0.0080895
 7297.47791 1.0094441 0.0081924
 7304.77483 1.0074850 0.0080661
 7312.08352 1.0068454 0.0080518
 7319.39221 1.0041114 0.0081582
 7326.71268 0.9976669 0.0080368
 7334.04552 0.9980454 0.0080253
 7341.37836 0.9993041 0.0081356
 7348.72297 1.0037992 0.0080187
 7356.06759 1.0023248 0.0080102
 7363.42457 0.9972910 0.0081247
 7370.78155 0.9894247 0.0080119
 7378.16268 0.9830149 0.0080064
 7385.54321 0.9804366 0.0081256
 7392.92434 0.9753000 0.0080163
 7400.31724 0.9674003 0.0080140
 7407.72251 0.9553517 0.0080357
 7415.12778 0.9475807 0.0080317
 7422.54483 0.9387399 0.0080325
 7429.96188 0.9289270 0.0080585
 7437.39129 0.9257791 0.0080576
 7444.83249 0.9224045 0.0080617
 7452.27368 0.9208702 0.0080914
 7459.72724 0.9170164 0.0080937
 7467.19258 0.9106283 0.0080030
 7474.65791 0.9021491 0.0081340
 7482.13562 0.9009038 0.0081396
 7489.61273 0.9033336 0.0080527
 7497.10221 0.9040262 0.0081860
 7504.60406 0.9037701 0.0081949
 7512.10591 0.9010996 0.0081116
 7519.61953 0.9033885 0.0082469
 7527.14494 0.9094155 0.0081619
 7534.65856 0.9149188 0.0081795
 7542.19633 0.9206344 0.0083165
 7549.74647 0.9269152 0.0082349
 7557.29602 0.9306986 0.0082559
 7564.85793 0.9381796 0.0082966
 7572.41985 0.9420173 0.0083160
 7579.99354 0.9447345 0.0084626
 7587.56782 0.9470972 0.0083820
 7595.15388 0.9451187 0.0084049
 7602.75172 0.9412621 0.0084537
 7610.36192 0.9427287 0.0084748
 7617.97213 0.9437776 0.0085013
 7625.58233 0.9429593 0.0085501
 7633.21668 0.9455345 0.0085748
 7640.85102 0.9428745 0.0084971
 7648.48478 0.9430008 0.0086532
 7656.13150 0.9440467 0.0086816
 7663.78999 0.9473253 0.0087363
 7671.46026 0.9500861 0.0087628
 7679.13053 0.9544011 0.0086865
 7686.80080 0.9561874 0.0088482
 7694.49580 0.9548734 0.0088785
 7702.19022 0.9573964 0.0087983
 7709.89700 0.9634455 0.0089660
 7717.60319 0.9732330 0.0088896
 7725.32175 0.9777996 0.0090571
 7733.05268 0.9853055 0.0089843
 7740.77124 0.9934607 0.0090083
 7748.51453 1.0018033 0.0091819
 7756.26901 1.0086682 0.0091040
 7764.02408 1.0168321 0.0092773
 7771.79093 1.0211858 0.0092024
 7779.55778 1.0231900 0.0092282
 7787.34877 1.0188671 0.0093032
 7795.12798 1.0169040 0.0093269
 7802.91897 1.0116298 0.0095062
 7810.73411 1.0077913 0.0094277
 7818.53688 1.0049008 0.0094557
 7826.35202 1.0019355 0.0095303
 7834.17952 1.0012082 0.0095561
 7842.01880 1.0031817 0.0096345
 7849.85808 1.0041865 0.0096580
 7857.70914 1.0087693 0.0095857
 7865.57257 1.0104699 0.0097611
 7873.43599 1.0103105 0.0097893
 7881.31178 1.0089574 0.0098651
 7889.18699 1.0026184 0.0098911
 7897.07456 0.9984948 0.0099698
 7904.97449 0.9961627 0.0099935
 7912.88562 0.9928589 0.0099176
 7920.79733 0.9888001 0.0100961
 7928.72142 0.9840950 0.0100168
 7936.64491 0.9776689 0.0101989
 7944.58077 0.9718658 0.0101159
 7952.52840 0.9710712 0.0101497
 7960.48841 0.9636177 0.0102147
 7968.44841 0.9592613 0.0102465
 7976.40841 0.9455250 0.0103129
 7984.39197 0.9348038 0.0103427
 7992.37612 0.9311379 0.0105242
 8000.37204 0.9289847 0.0104379
 8008.36856 0.9253987 0.0106218
 8016.37626 0.9197594 0.0105321
 8024.39692 0.9146126 0.0105655
 8032.41699 0.9102194 0.0106248
 8040.44884 0.9080614 0.0106563
 8048.49364 0.9008155 0.0107159
 8056.53785 0.8927014 0.0107455
 8064.59385 0.8905444 0.0108050
 8072.66220 0.8835719 0.0108327
 8080.73115 0.8703870 0.0108920
 8088.81129 0.8613766 0.0109178
 8096.90379 0.8516896 0.0108170
 8104.99629 0.8432879 0.0110004
 8113.11294 0.8393814 0.0108982
 8121.21781 0.8358290 0.0110804
 8129.34624 0.8303361 0.0109766
 8137.47525 0.8219292 0.0111575
 8145.61604 0.8156641 0.0110519
 8153.75683 0.8116708 0.0112315
 8161.90940 0.8104935 0.0111239
 8170.07434 0.8049821 0.0113021
 8178.23928 0.8008645 0.0111923
 8186.42836 0.7940605 0.0113691
 8194.60566 0.7980183 0.0112569
 8202.80652 0.7979847 0.0112703
 8211.00797 0.7887999 0.0113176
 8219.22060 0.7815495 0.0113293
 8227.44619 0.7765478 0.0113740
 8235.67120 0.7726135 0.0113842
 8243.90857 0.7645815 0.0114261
 8252.14594 0.7583522 0.0114346
 8260.39508 0.7503267 0.0114734
 8268.65660 0.7438851 0.0114805
 8276.92989 0.7383106 0.0115159
 8285.20377 0.7324993 0.0115216
 8293.48884 0.7238969 0.0115534
 8301.78686 0.7236508 0.0114272
 8310.08430 0.7226261 0.0115856
 8318.40588 0.7222805 0.0114569
 8326.71568 0.7255691 0.0116124
 8335.04904 0.7287631 0.0114812
 8343.38299 0.7261614 0.0116335
 8351.71694 0.7215066 0.0114999
 8360.07444 0.7217298 0.0116489
 8368.43253 0.7282614 0.0115129
 8376.80240 0.7341018 0.0116582
 8385.18464 0.7367449 0.0115201
 8393.56628 0.7379519 0.0116614
 8401.96030 0.7422194 0.0115211
 8410.36668 0.7462422 0.0115199
 8418.77306 0.7482675 0.0115159
 8427.19122 0.7529134 0.0115093
 8435.62115 0.7571359 0.0115044
 8444.06346 0.7605034 0.0114921
 8452.50576 0.7575782 0.0114864
 8460.94806 0.7530971 0.0114683
 8469.41451 0.7534091 0.0114618
 8477.89273 0.7494186 0.0114378
 8486.35918 0.7495074 0.0112796
 8494.84977 0.7480708 0.0114007
 8503.35273 0.7403127 0.0112382
 8511.84332 0.7371844 0.0113571
 8520.35806 0.7358219 0.0113255
 8528.88457 0.7340953 0.0113074
 8537.41109 0.7354192 0.0112698
 8545.94997 0.7339278 0.0111040
 8554.50062 0.7280173 0.0112084
 8563.05187 0.7216042 0.0110386
 8571.61490 0.7165375 0.0111415
 8580.18970 0.7112937 0.0109681
 8588.76450 0.7087952 0.0109284
 8597.35167 0.7125313 0.0108926
 8605.95062 0.7098986 0.0108476
 8614.56193 0.7072195 0.0108127
 8623.17324 0.7089624 0.0107625
 8631.79634 0.7131846 0.0108517
 8640.43120 0.7205641 0.0106735
 8649.06666 0.7243024 0.0106223
 8657.72626 0.7255602 0.0105810
 8666.38528 0.7187217 0.0105251
 8675.04488 0.7202893 0.0104854
 8683.71626 0.7299393 0.0104249
 8692.41179 0.7291951 0.0102538
 8701.09553 0.7319854 0.0103223
 8709.80284 0.7399414 0.0102615
 8718.51073 0.7440457 0.0102175
 8727.23040 0.7525211 0.0101526
 8735.96243 0.7591903 0.0099798
 8744.69388 0.7657695 0.0100423
 8753.43769 0.7707350 0.0098729
 8762.19387 0.7698341 0.0098011
 8770.96124 0.7677646 0.0098626
 8779.72920 0.7723005 0.0096900
 8788.50952 0.7724994 0.0097471
 8797.30163 0.7682558 0.0095787
 8806.09373 0.7668549 0.0095045
 8814.89761 0.7696897 0.0094675
 8823.71385 0.7684489 0.0093905
 8832.54188 0.7560283 0.0094426
 8841.37049 0.7452211 0.0092773
 8850.21088 0.7445037 0.0092019
 8859.06305 0.7378784 0.0091651
 8867.92759 0.7261608 0.0090875
 8876.79153 0.7193120 0.0090139
 8885.66844 0.7108365 0.0089748
 8894.55712 0.6985437 0.0088992
 8903.45758 0.6925275 0.0087398
 8912.35803 0.6797544 0.0087869
 8921.27086 0.6705760 0.0087139
 8930.18309 0.6680601 0.0085588
 8939.12006 0.6677384 0.0086029
 8948.05703 0.6639135 0.0084478
 8957.00578 0.6621403 0.0084953
 8965.96689 0.6575097 0.0084240
 8974.92741 0.6530657 0.0082737
 8983.90031 0.6481924 0.0083192
 8992.88556 0.6439296 0.0081692
 9001.88260 0.6515629 0.0081061
 9010.89200 0.6563253 0.0081505
 9019.90081 0.6598752 0.0081231
 9028.92199 0.6604071 0.0083039
 9037.94317 0.6624583 0.0085166
 9046.98850 0.6626032 0.0086596
 9056.03382 0.6571978 0.0089570
 9065.09151 0.6552694 0.0094441
 9074.16098 0.6549773 0.0080833
 9083.23045 0.6519644 0.0080265
 9092.31170 0.6478814 0.0082561
 9101.40531 0.6445732 0.0084239
 9110.51070 0.6440866 0.0086599
 9119.61668 0.6368765 0.0089580
 9128.73444 0.6237313 0.0092034
 9137.86397 0.6197560 0.0092826
 9147.00588 0.6111898 0.0094176
 9156.14778 0.6114011 0.0096777
 9165.31382 0.6073171 0.0093475
 9174.47928 0.6008934 0.0091413
 9183.65770 0.5904848 0.0089765
 9192.83552 0.5869200 0.0085501
 9202.02571 0.5786880 0.0082528
 9211.22768 0.5727319 0.0080086
 9220.44201 0.5684645 0.0076916
 9229.66813 0.5687142 0.0075138
 9238.89424 0.5757048 0.0073897
 9248.13272 0.5788785 0.0073287
 9257.38298 0.5801600 0.0083541
 9266.63323 0.5842401 0.0079386
 9275.90764 0.5886798 0.0076224
 9285.18204 0.5939907 0.0073835
 9294.46881 0.6024857 0.0071825
 9303.76735 0.6057352 0.0070839
 9313.06590 0.6094244 0.0070087
 9322.38859 0.6143664 0.0070164
 9331.69950 0.6209014 0.0069477
 9341.03397 0.6255074 0.0070339
 9350.38081 0.6295576 0.0070507
 9359.72764 0.6298045 0.0069884
 9369.08684 0.6308145 0.0070153
 9378.45782 0.6347553 0.0071102
 9387.84058 0.6342139 0.0070542
 9397.22334 0.6314745 0.0070908
 9406.61846 0.6296554 0.0071962
 9416.02595 0.6243467 0.0071466
 9425.44522 0.6206526 0.0071933
 9434.86449 0.6163705 0.0072462
 9444.30731 0.6092477 0.0073631
 9453.75073 0.6039720 0.0073243
 9463.20650 0.5996475 0.0073880
 9472.67347 0.5921909 0.0074581
 9482.14103 0.5873365 0.0074853
 9491.62037 0.5778845 0.0075602
 9501.12443 0.5752251 0.0076418
 9510.61555 0.5685680 0.0076207
 9520.13139 0.5660898 0.0078366
 9529.64724 0.5649688 0.0080827
 9539.18723 0.5621631 0.0083680
 9548.72663 0.5622392 0.0080161
 9558.26662 0.5643257 0.0081530
 9567.83076 0.5610727 0.0082412
 9577.39430 0.5625911 0.0083362
 9586.97021 0.5610505 0.0085738
 9596.55849 0.5580075 0.0088666
 9606.15855 0.5619072 0.0091689
 9615.75861 0.5627807 0.0093611
 9625.38281 0.5619435 0.0096845
 9635.00701 0.5620278 0.0100010
 9644.64358 0.5658889 0.0103530
 9654.29193 0.5715191 0.0104499
 9663.94027 0.5705600 0.0106387
 9673.61276 0.5660831 0.0107719
 9683.28525 0.5646459 0.0107206
 9692.95774 0.5668900 0.0107640
 9702.65379 0.5659716 0.0107726
 9712.36279 0.5606118 0.0107676
 9722.07120 0.5547428 0.0106105
 9731.80435 0.5491768 0.0106675
 9741.52454 0.5452445 0.0107441
 9751.26946 0.5427222 0.0109626
 9761.02675 0.5405632 0.0110282
 9770.78345 0.5404759 0.0121356
 9780.55252 0.5358593 0.0119807
 9790.33337 0.5353625 0.0117842
 9800.12658 0.5340915 0.0116273
 9809.93157 0.5298279 0.0118614
 9819.73656 0.5260999 0.0121024
 9829.55392 0.5322987 0.0124144
 9839.39542 0.5330762 0.0126634
 9849.22455 0.5293670 0.0127123
 9859.07783 0.5255484 0.0129703
 9868.94348 0.5188783 0.0132350
 9878.80853 0.5160373 0.0135063
 9888.68655 0.5157511 0.0136264
 9898.57634 0.5158110 0.0139007
 9908.47790 0.5018621 0.0141813
 9918.39125 0.4933843 0.0144684
 9928.30460 0.4940110 0.0145229
 9938.23090 0.5060436 0.0148108
 9948.16780 0.5090492 0.0151878
 9958.11766 0.5016919 0.0154898
 9968.08047 0.5012006 0.0157979
 9978.04210 0.4962097 0.0158554
 9988.02847 0.4955221 0.0161635
 9998.01366 0.4918688 0.0164773
 10008.01181 0.4906639 0.0168913
 10018.02173 0.4852307 0.0172191
 10028.04461 0.4827636 0.0172798
 10038.06631 0.4819138 0.0176068
 10048.10097 0.4878763 0.0179393
 10058.15918 0.4864747 0.0182772
 10068.20561 0.4860897 0.0186205
 10078.27678 0.4875899 0.0187926
 10088.35855 0.4952206 0.0192478
 10098.45327 0.4955479 0.0198859
 10108.54799 0.4948967 0.0206147
 10118.65449 0.4969869 0.0203332
 10128.77277 0.5037178 0.0205376
 10138.90401 0.4993702 0.0171641
 10149.04702 0.5087593 0.0175891
 10159.19003 0.5193532 0.0180292
 10169.35660 0.5252588 0.0182749
 10179.52317 0.5290518 0.0187494
 10189.70269 0.5422965 0.0192072
 10199.89399 0.5486801 0.0196645
 10210.09707 0.5566435 0.0201158
 10220.31193 0.5655077 0.0205548
 10230.52678 0.5711640 0.0207587
 10240.75460 0.5806370 0.0211373
 10250.99418 0.6050753 0.0214893
 10261.24555 0.6140701 0.0218117
 10271.50870 0.6334510 0.0221025
 10281.78362 0.6404207 0.0224368
 10292.07150 0.6505021 0.0223977
 10302.35938 0.6548378 0.0226073
 10312.65903 0.6684430 0.0227929
 10322.97047 0.6803932 0.0229608
 10333.29368 0.6942940 0.0231196
 10343.62985 0.7102925 0.0232798
 10353.97779 0.7185337 0.0232279
 10364.32574 0.7244648 0.0234115
 10374.69724 0.7266942 0.0236355
 10385.06992 0.7279217 0.0239275
 10395.45320 0.7301149 0.0243315
 10405.84943 0.7348694 0.0249907
 10416.25744 0.7306859 0.0259815
 10426.67841 0.7194957 0.0265681
 10437.09820 0.7255362 0.0263232
 10447.54272 0.7324492 0.0261160
 10457.98724 0.7403582 0.0262083
 10468.44355 0.7297154 0.0265775
 10478.91162 0.7281561 0.0269489
 10489.39266 0.7139951 0.0273224
 10499.88429 0.7109572 0.0274097
 10510.37710 0.7009878 0.0277819
 10520.89465 0.7095207 0.0281561
 10531.42279 0.7089907 0.0285322
 10541.93916 0.6974606 0.0289101
 10552.49204 0.6951614 0.0292899
 10563.04492 0.6974809 0.0296715
 10573.61075 0.6724896 0.0300548
 10584.18719 0.6674203 0.0304397
 10594.76480 0.6681925 0.0305203
 10605.36479 0.6461098 0.0309056
 10615.96595 0.6600400 0.0312925
 10626.58008 0.6398198 0.0317936
 10637.20480 0.6142076 0.0321836
 10647.85426 0.6150562 0.0325750
 10658.49193 0.6107012 0.0329678
 10669.15317 0.5879327 0.0334862
 10679.82618 0.5794757 0.0341709
 10690.51215 0.5708956 0.0346591
 10701.19811 0.5691103 0.0355097
 10711.89468 0.5612941 0.0364572
 10722.60538 0.5835031 0.0375271
 10733.33846 0.5864176 0.0387534
 10744.05976 0.5821205 0.0401823
 10754.80579 0.5671441 0.0418787
 10765.56360 0.5441934 0.0439292
 10776.33437 0.5328684 0.0464515
 10787.11574 0.5260937 0.0496015
 10797.89828 0.5336382 0.0535833
