# SOURCE  = 'Quimby et al. 2018' /                                                
# OBJECT  = 'PTF10hgi'           /                                                
# Z       =            0.0982000 / wavelengths in OBSERVER FRAME                 
# NORM    =             0.108706 / fluxes divided by norm                         
# CLIPPED =                    1 / galaxy emission lines removed                  
# SMOOTHED=                    1 / spectrum has been smoothed                     
# COLUMN01= 'Wavelength (Angstrom)' /                                             
# COLUMN02= 'Flux Density (erg/s/cm2/A)' /                                        
# COLUMN03= 'Flux Density Uncertainty (erg/s/cm2/A)' /                            
# END                                                                             
# 
# 
# 
# 
# 
# 
# 
# 
# 
# 
# Converted to Observer Frame using z=0.0982
 3864.43991 2.5728345 0.0672249
 3868.31126 2.5686655 0.0669782
 3872.17054 2.5572925 0.0672793
 3876.04218 2.5448761 0.0670147
 3879.92561 2.5454643 0.0662727
 3883.79696 2.5395949 0.0665852
 3887.69246 2.5289121 0.0663121
 3891.57588 2.5358768 0.0659858
 3895.47138 2.5163126 0.0662537
 3899.36687 2.5205886 0.0658938
 3903.26237 2.5197532 0.0650626
 3907.16994 2.5065041 0.0646321
 3911.07751 2.4964087 0.0647897
 3914.98507 2.4835966 0.0643562
 3918.90471 2.4682608 0.0639062
 3922.82435 2.4666772 0.0640429
 3926.74400 2.4669931 0.0631046
 3930.66364 2.4693968 0.0626060
 3934.59535 2.4799039 0.0621408
 3938.53913 2.4732797 0.0624085
 3942.47085 2.4752400 0.0619274
 3946.41463 2.4805803 0.0613170
 3950.35842 2.4746087 0.0608246
 3954.31427 2.4815052 0.0606014
 3958.27013 2.4839249 0.0600674
 3962.22599 2.4947522 0.0596125
 3966.19392 2.4989526 0.0592483
 3970.14948 2.4976423 0.0594807
 3974.12948 2.5001831 0.0591868
 3978.09741 2.4985468 0.0589179
 3982.07741 2.5028808 0.0591419
 3986.05741 2.4889741 0.0584541
 3990.04919 2.4889026 0.0581130
 3994.04127 2.4913061 0.0577475
 3998.03334 2.4923224 0.0579285
 4002.02541 2.4915795 0.0574615
 4006.02927 2.5010533 0.0569315
 4010.03341 2.5026174 0.0563594
 4014.04963 2.5203516 0.0563546
 4018.06585 2.5250666 0.0556975
 4022.08177 2.5266769 0.0547404
 4026.09799 2.5296745 0.0540753
 4030.12628 2.5331912 0.0534135
 4034.15428 2.5462794 0.0533065
 4038.19464 2.5537074 0.0526363
 4042.23471 2.5414155 0.0520122
 4046.27507 2.5440445 0.0513860
 4050.31543 2.5558300 0.0513550
 4054.36757 2.5647433 0.0507980
 4058.42001 2.5578401 0.0503338
 4062.48422 2.5591860 0.0499326
 4066.54873 2.5620813 0.0497527
 4070.61294 2.5581088 0.0494167
 4074.68952 2.5588205 0.0489521
 4078.76580 2.5499594 0.0485553
 4082.84238 2.5437891 0.0481970
 4086.91867 2.5494063 0.0482539
 4091.00732 2.5464001 0.0478630
 4095.09568 2.5275214 0.0474849
 4099.19611 2.5224874 0.0471102
 4103.29683 2.5125654 0.0467321
 4107.39726 2.5096157 0.0468392
 4111.51006 2.5145495 0.0464525
 4115.61048 2.5196822 0.0460643
 4119.73506 2.5244591 0.0456860
 4123.84785 2.5270090 0.0453242
 4127.97243 2.5353379 0.0454237
 4132.10907 2.5598264 0.0447322
 4136.23394 2.5767968 0.0443580
 4140.37059 2.5930908 0.0440004
 4144.50723 2.5926342 0.0436870
 4148.65595 2.5988009 0.0438067
 4152.80496 2.6102724 0.0434780
 4156.96575 2.6036961 0.0431740
 4161.11447 2.5998988 0.0428673
 4165.27526 2.5915480 0.0425596
 4169.44812 2.5968699 0.0427046
 4173.60921 2.6043880 0.0423966
 4177.78207 2.5834877 0.0421191
 4181.96701 2.5808837 0.0418368
 4186.15194 2.5823333 0.0415400
 4190.33688 2.5766084 0.0412585
 4194.52181 2.5701902 0.0414364
 4198.71882 2.5559206 0.0411706
 4202.91582 2.5363958 0.0408758
 4207.12520 2.5309889 0.0405818
 4211.33428 2.5259542 0.0402882
 4215.54336 2.5292342 0.0399990
 4219.75244 2.5410230 0.0401468
 4223.97359 2.5547116 0.0398382
 4228.19474 2.5651808 0.0395456
 4232.42796 2.5648148 0.0393036
 4236.66119 2.5777645 0.0390375
 4240.89441 2.5961752 0.0387238
 4245.13941 2.6171105 0.0388192
 4249.38471 2.6360426 0.0385025
 4253.63000 2.6319544 0.0382643
 4257.88737 2.6378238 0.0380735
 4262.14474 2.6468163 0.0379112
 4266.41418 2.6335549 0.0377552
 4270.67155 2.6210783 0.0376232
 4274.94099 2.6203191 0.0378755
 4279.22220 2.6062517 0.0377135
 4283.50372 2.6048565 0.0375115
 4287.78523 2.5943799 0.0372978
 4292.06674 2.5756269 0.0370877
 4296.36033 2.5655613 0.0368716
 4300.65362 2.5580776 0.0369189
 4304.95927 2.5531886 0.0370752
 4309.26493 2.5354364 0.0367884
 4313.58236 2.5321589 0.0364812
 4317.88802 2.5289054 0.0361725
 4322.20575 2.5259745 0.0358488
 4326.53526 2.5252099 0.0355396
 4330.85299 2.5192842 0.0352561
 4335.18279 2.5076985 0.0350152
 4339.52437 2.4987519 0.0352041
 4343.86624 2.4967754 0.0349199
 4348.20811 2.5036943 0.0346104
 4352.56176 2.5059197 0.0343140
 4356.90364 2.4979622 0.0340415
 4361.26936 2.4877293 0.0338210
 4365.62331 2.4843559 0.0336316
 4369.98903 2.4601364 0.0337275
 4374.36712 2.4593074 0.0335036
 4378.73284 2.4555511 0.0337168
 4383.11093 2.4520614 0.0335446
 4387.50080 2.4470148 0.0334243
 4391.89096 2.4487908 0.0334591
 4396.28083 2.4534855 0.0335382
 4400.68307 2.4603250 0.0332466
 4405.07293 2.4677746 0.0331050
 4409.48695 2.4559174 0.0330688
 4413.88918 2.4547718 0.0330943
 4418.30319 2.4441280 0.0335301
 4422.72928 2.4402261 0.0335483
 4427.14358 2.4457488 0.0339531
 4431.58174 2.4417212 0.0340124
 4436.00783 2.4356856 0.0339001
 4440.44628 2.4379692 0.0336726
 4444.88443 2.4465890 0.0333864
 4449.33466 2.4460816 0.0331043
 4453.77282 2.4276903 0.0331684
 4458.23541 2.4302926 0.0328653
 4462.68564 2.4271307 0.0324953
 4467.16002 2.4145463 0.0320866
 4471.62232 2.4155629 0.0316815
 4476.09669 2.4133904 0.0313027
 4480.57136 2.4145975 0.0309925
 4485.04573 2.4205935 0.0308117
 4489.53218 2.4167478 0.0312416
 4494.03070 2.4098043 0.0308596
 4498.51714 2.3983979 0.0304942
 4503.01566 2.3927984 0.0301650
 4507.52625 2.3839784 0.0298469
 4512.02477 2.3700383 0.0295822
 4516.54743 2.3569815 0.0293970
 4521.05802 2.3358893 0.0292647
 4525.58068 2.3197663 0.0286681
 4530.10334 2.3074856 0.0285213
 4534.63808 2.2759006 0.0283234
 4539.17281 2.2554963 0.0281443
 4543.70755 2.2289965 0.0283303
 4548.25435 2.2281251 0.0281797
 4552.80116 2.2156153 0.0280651
 4557.36004 2.2168369 0.0279466
 4561.90684 2.2119083 0.0278288
 4566.47780 2.2173631 0.0276758
 4571.03667 2.2224398 0.0275404
 4575.60733 2.2419474 0.0270171
 4580.19035 2.2507956 0.0268552
 4584.77338 2.2500427 0.0266516
 4589.35640 2.2568600 0.0264267
 4593.93942 2.2447627 0.0261961
 4598.53422 2.2378776 0.0259773
 4603.14139 2.2224445 0.0257974
 4607.73649 2.2162120 0.0256036
 4612.34365 2.2075481 0.0254344
 4616.96260 2.1882668 0.0253032
 4621.58184 2.1664963 0.0251540
 4626.20108 2.1694517 0.0249815
 4630.82003 2.1637757 0.0248830
 4635.45134 2.1603284 0.0248034
 4640.09472 2.1577404 0.0247336
 4644.73781 2.1513965 0.0246913
 4649.38120 2.1690202 0.0246299
 4654.02429 2.1796503 0.0242742
 4658.67974 2.1923182 0.0242008
 4663.33490 2.2039347 0.0241093
 4668.00243 2.2114012 0.0242746
 4672.66967 2.2084086 0.0241458
 4677.34927 2.2231076 0.0239965
 4682.01650 2.2135518 0.0238661
 4686.70818 2.2223816 0.0234548
 4691.38748 2.2290266 0.0233671
 4696.07915 2.2436845 0.0232592
 4700.78261 2.2724271 0.0231656
 4705.48635 2.2772968 0.0231052
 4710.18980 2.2911723 0.0233349
 4714.89325 2.3217790 0.0230011
 4719.60907 2.3254735 0.0230373
 4724.33667 2.3365288 0.0230583
 4729.05219 2.3555262 0.0230941
 4733.79215 2.3747132 0.0231007
 4738.51975 2.3989823 0.0231213
 4743.25941 2.4102814 0.0232531
 4747.99937 2.4200349 0.0231563
 4752.75111 2.4218390 0.0230779
 4757.50285 2.4300010 0.0231839
 4762.26667 2.4325407 0.0236065
 4767.01870 2.4386654 0.0244257
 4771.79458 2.4282439 0.0240532
 4776.55840 2.4310021 0.0239286
 4781.33428 2.4292760 0.0246302
 4786.12224 2.4353180 0.0253334
 4790.91019 2.4472027 0.0258562
 4795.69815 2.4369795 0.0265883
 4800.49847 2.4484267 0.0269044
 4805.29850 2.4475548 0.0269625
 4810.09853 2.4403210 0.0270078
 4814.91063 2.4333074 0.0255329
 4819.72273 2.4176867 0.0247776
 4824.54690 2.3917243 0.0240146
 4829.37108 2.3768744 0.0233693
 4834.19525 2.3574574 0.0229699
 4839.03150 2.3373053 0.0219524
 4843.86774 2.3312297 0.0214527
 4848.71606 2.3065765 0.0212621
 4853.56438 2.2817636 0.0216621
 4858.42447 2.2609751 0.0217036
 4863.27279 2.2451954 0.0210267
 4868.14525 2.2352355 0.0206877
 4873.01771 2.2206695 0.0208707
 4877.89017 2.2122068 0.0214410
 4882.76263 2.2013476 0.0208281
 4887.64687 2.2044616 0.0204049
 4892.53141 2.1971874 0.0204617
 4897.42801 2.1918182 0.0206158
 4902.32462 2.1909833 0.0210610
 4907.22123 2.1727300 0.0215618
 4912.12961 2.1649978 0.0222860
 4917.05036 2.1590655 0.0224879
 4921.95904 2.1680479 0.0227077
 4926.89157 2.1800072 0.0226084
 4931.81232 2.1889424 0.0223086
 4936.74514 2.2129655 0.0218459
 4941.67796 2.2200441 0.0213156
 4946.62227 2.2351799 0.0207484
 4951.56717 2.2442367 0.0206635
 4956.52443 2.2575288 0.0209216
 4961.48110 2.2619836 0.0198258
 4966.43777 2.2701945 0.0200509
 4971.40681 2.2749369 0.0206037
 4976.37585 2.2830040 0.0205617
 4981.35667 2.2927775 0.0208619
 4986.33749 2.3000112 0.0213314
 4991.31830 2.3021202 0.0214312
 4996.31149 2.3071780 0.0220346
 5001.31645 2.3014300 0.0220368
 5006.30963 2.3133025 0.0214970
 5011.32696 2.3046169 0.0210956
 5016.33192 2.2991762 0.0207298
 5021.34925 2.2800491 0.0199414
 5026.36599 2.2616022 0.0194092
 5031.39510 2.2533379 0.0189388
 5036.42479 2.2412004 0.0188289
 5041.46568 2.2215874 0.0187074
 5046.50715 2.1975071 0.0195976
 5051.56040 2.1839175 0.0189617
 5056.60187 2.1614377 0.0182734
 5061.66690 2.1443937 0.0182142
 5066.72015 2.1337848 0.0181625
 5071.78577 2.1189837 0.0181223
 5076.86316 2.1138575 0.0180767
 5081.94056 2.1108572 0.0180245
 5087.01795 2.1017411 0.0177978
 5092.10771 2.1004889 0.0179711
 5097.19689 2.0959723 0.0179719
 5102.29843 2.0980742 0.0178179
 5107.39997 2.0901608 0.0180750
 5112.51387 2.0888689 0.0181109
 5117.62719 2.0836260 0.0179676
 5122.74110 2.0831127 0.0181980
 5127.86678 2.0829716 0.0179743
 5132.99246 2.0781033 0.0179349
 5138.12992 2.0740767 0.0178755
 5143.26797 2.0694225 0.0177751
 5148.40544 2.0598049 0.0176920
 5153.55526 2.0519447 0.0176155
 5158.70509 2.0485692 0.0175119
 5163.86729 2.0389898 0.0174260
 5169.02889 2.0205228 0.0174150
 5174.20287 2.0134041 0.0174211
 5179.37684 2.0022578 0.0174411
 5184.55081 1.9948279 0.0173089
 5189.73656 1.9880561 0.0175162
 5194.93468 1.9830573 0.0175279
 5200.12102 1.9815158 0.0173067
 5205.33091 1.9743499 0.0174221
 5210.52903 1.9726979 0.0171086
 5215.73892 1.9638236 0.0169856
 5220.96119 1.9496793 0.0170152
 5226.18345 1.9347619 0.0166436
 5231.40571 1.9242415 0.0164941
 5236.63975 1.9136406 0.0163201
 5241.87379 1.9051516 0.0162240
 5247.12019 1.9057640 0.0162982
 5252.36660 1.9000930 0.0160744
 5257.61300 1.8912839 0.0164080
 5262.87119 1.8815931 0.0170045
 5268.14174 1.8739138 0.0161191
 5273.39992 1.8748552 0.0159810
 5278.68225 1.8827477 0.0160571
 5283.95280 1.8883288 0.0163628
 5289.23513 1.8937478 0.0167833
 5294.52982 1.8992126 0.0171748
 5299.82452 1.9067101 0.0173956
 5305.13099 1.9109859 0.0178239
 5310.42569 1.9129246 0.0179878
 5315.74394 1.9146976 0.0178070
 5321.06277 1.9174173 0.0175183
 5326.38161 1.9114434 0.0169038
 5331.69986 1.9173055 0.0166749
 5337.04285 1.9160289 0.0160759
 5342.37346 1.9176176 0.0158746
 5347.71645 1.9147424 0.0155092
 5353.07121 1.9106625 0.0154498
 5358.41419 1.9093981 0.0164190
 5363.78073 1.9044315 0.0158489
 5369.13549 1.9038599 0.0154299
 5374.51440 1.9082475 0.0152292
 5379.88153 1.9108377 0.0151921
 5385.27280 1.9139627 0.0151310
 5390.65171 1.9127856 0.0151062
 5396.04239 1.9115731 0.0150495
 5401.44544 1.9056273 0.0150222
 5406.83671 1.8976851 0.0150009
 5412.25154 1.8978245 0.0149900
 5417.65459 1.9023945 0.0148356
 5423.08178 1.8992627 0.0149820
 5428.49720 1.8933321 0.0147966
 5433.92440 1.8964884 0.0149558
 5439.36337 1.8969033 0.0149021
 5444.80293 1.8962548 0.0151771
 5450.25427 1.9051963 0.0152093
 5455.69324 1.9131981 0.0155194
 5461.15695 1.9197720 0.0155174
 5466.62006 1.9245716 0.0157839
 5472.08377 1.9359829 0.0156603
 5477.55866 1.9441894 0.0156363
 5483.03415 1.9512081 0.0155434
 5488.52200 1.9587359 0.0154342
 5494.00926 1.9571282 0.0152569
 5499.49711 1.9584067 0.0151024
 5504.99615 1.9511118 0.0149202
 5510.50814 1.9477831 0.0148264
 5516.01955 1.9478385 0.0147637
 5521.53154 1.9393103 0.0145853
 5527.05472 1.9316453 0.0147373
 5532.57850 1.9243520 0.0146376
 5538.11464 1.9183739 0.0146700
 5543.65019 1.9064723 0.0145191
 5549.19810 1.8955961 0.0147303
 5554.74543 1.8917058 0.0147090
 5560.30571 1.8824788 0.0149915
 5565.86541 1.8739105 0.0150302
 5571.42510 1.8686146 0.0153038
 5576.99716 1.8550806 0.0152581
 5582.58100 1.8423103 0.0153095
 5588.16543 1.8292357 0.0152744
 5593.74927 1.8158180 0.0151933
 5599.34547 1.7992972 0.0150874
 5604.94109 1.7989441 0.0149276
 5610.54907 1.7847081 0.0147846
 5616.15765 1.7697242 0.0146177
 5621.77741 1.7562190 0.0143941
 5627.39776 1.7469773 0.0144733
 5633.02989 1.7345535 0.0146219
 5638.65024 1.7221882 0.0147534
 5644.29414 1.7135892 0.0146089
 5649.93864 1.7007214 0.0145102
 5655.59491 1.6893283 0.0147140
 5661.25118 1.6753924 0.0145793
 5666.90745 1.6630118 0.0147506
 5672.57609 1.6435232 0.0146110
 5678.24473 1.6279854 0.0146138
 5683.92515 1.6151627 0.0146022
 5689.60556 1.6073883 0.0146184
 5695.29776 1.6003572 0.0147859
 5701.00232 1.6017354 0.0146884
 5706.69510 1.5991805 0.0147915
 5712.39966 1.5993743 0.0148654
 5718.11659 1.5826091 0.0149753
 5723.83293 1.5735832 0.0148910
 5729.56163 1.5686411 0.0150927
 5735.29034 1.5609661 0.0151837
 5741.03141 1.5535806 0.0152360
 5746.76012 1.5511239 0.0153170
 5752.51297 1.5467643 0.0152502
 5758.26523 1.5376431 0.0154618
 5764.03044 1.5258555 0.0155735
 5769.79507 1.5198232 0.0155154
 5775.56029 1.5069178 0.0157762
 5781.33728 1.5060636 0.0157448
 5787.11428 1.5062211 0.0158938
 5792.90305 1.5142093 0.0161687
 5798.69182 1.5172012 0.0161525
 5804.49296 1.5235384 0.0163143
 5810.30646 1.5303099 0.0164254
 5816.11938 1.5302300 0.0165900
 5821.93230 1.5354996 0.0167713
 5827.74580 1.5341741 0.0169002
 5833.58286 1.5411276 0.0170737
 5839.40815 1.5364032 0.0172683
 5845.24521 1.5315845 0.0174194
 5851.09463 1.5291866 0.0176475
 5856.94406 1.5301476 0.0176627
 5862.80527 1.5282526 0.0180298
 5868.66647 1.5228503 0.0182574
 5874.54004 1.5161686 0.0182553
 5880.41362 1.5140771 0.0184668
 5886.28719 1.5004449 0.0188245
 5892.18432 1.4980175 0.0186602
 5898.07025 1.4906541 0.0187903
 5903.96738 1.4877899 0.0191117
 5909.87746 1.4785951 0.0190548
 5915.78696 1.4679004 0.0189927
 5921.69645 1.4714952 0.0186850
 5927.63009 1.4775449 0.0183195
 5933.55195 1.4918436 0.0177029
 5939.48559 1.5028460 0.0171805
 5945.43160 1.5067812 0.0165843
 5951.36523 1.5232168 0.0156180
 5957.32302 1.5343392 0.0149748
 5963.28080 1.5411096 0.0145811
 5969.23858 1.5556355 0.0144925
 5975.20873 1.5642723 0.0144789
 5981.19066 1.5717854 0.0144077
 5987.17259 1.5757591 0.0145613
 5993.15451 1.5887530 0.0149271
 5999.14881 1.5976651 0.0150132
 6005.15488 1.6055880 0.0147197
 6011.16095 1.6222882 0.0144045
 6017.16702 1.6386110 0.0143105
 6023.18487 1.6548864 0.0139044
 6029.20331 1.6649915 0.0135595
 6035.23353 1.6749899 0.0132083
 6041.27552 1.6833776 0.0128812
 6047.31811 1.6906075 0.0127068
 6053.36010 1.7037107 0.0125125
 6059.41446 1.7111183 0.0124311
 6065.46882 1.7177578 0.0124457
 6071.53496 1.7217199 0.0124452
 6077.61346 1.7228181 0.0119556
 6083.69197 1.7231117 0.0117291
 6089.78284 1.7133013 0.0117860
 6095.86135 1.7061332 0.0120270
 6101.96400 1.7001959 0.0123007
 6108.06606 1.6897858 0.0125989
 6114.16871 1.6726480 0.0126820
 6120.28372 1.6554302 0.0127546
 6126.40993 1.6384158 0.0126167
 6132.53672 1.6251312 0.0124161
 6138.66351 1.6115983 0.0121007
 6144.80209 1.6001667 0.0115808
 6150.95302 1.5912632 0.0111662
 6157.10396 1.5822980 0.0108276
 6163.25490 1.5728383 0.0106009
 6169.41762 1.5695066 0.0104983
 6175.59270 1.5658422 0.0107404
 6181.76778 1.5610380 0.0112038
 6187.95464 1.5660717 0.0110024
 6194.14150 1.5663644 0.0108047
 6200.32836 1.5709341 0.0107701
 6206.53996 1.5714504 0.0109474
 6212.73860 1.5769486 0.0112954
 6218.95019 1.5798359 0.0116322
 6225.17297 1.5784338 0.0117842
 6231.39634 1.5753022 0.0120657
 6237.63149 1.5744318 0.0122742
 6243.86664 1.5673585 0.0123890
 6250.11416 1.5651907 0.0124173
 6256.36109 1.5662051 0.0122627
 6262.62097 1.5639815 0.0118832
 6268.88026 1.5607111 0.0115381
 6275.15133 1.5568345 0.0111782
 6281.42299 1.5559216 0.0107589
 6287.70643 1.5554109 0.0104085
 6294.00224 1.5534660 0.0102061
 6300.28567 1.5480099 0.0102282
 6306.59326 1.5525860 0.0102744
 6312.90084 1.5560166 0.0103545
 6319.20842 1.5601306 0.0104320
 6325.52778 1.5595835 0.0105713
 6331.85951 1.5551419 0.0107478
 6338.19124 1.5492651 0.0107796
 6344.52296 1.5455396 0.0108756
 6350.86706 1.5344183 0.0109170
 6357.22293 1.5260477 0.0109036
 6363.57880 1.5171028 0.0108562
 6369.94645 1.5044159 0.0107849
 6376.31469 1.4966569 0.0107138
 6382.69411 1.4903359 0.0105987
 6389.07413 1.4874825 0.0106807
 6395.46651 1.4889314 0.0107333
 6401.85831 1.4851519 0.0110350
 6408.26247 1.4786630 0.0113547
 6414.66663 1.4735951 0.0116261
 6421.08257 1.4688946 0.0116084
 6427.51087 1.4693311 0.0114764
 6433.93917 1.4738636 0.0118832
 6440.36748 1.4703603 0.0123435
 6446.80756 1.4620494 0.0129582
 6453.26001 1.4502546 0.0135624
 6459.71246 1.4429984 0.0140387
 6466.17669 1.4315304 0.0143999
 6472.62914 1.4118861 0.0142084
 6479.10573 1.3980882 0.0138829
 6485.59410 1.3890711 0.0133889
 6492.07069 1.3774785 0.0128203
 6498.57084 1.3705106 0.0122501
 6505.05980 1.3607991 0.0117313
 6511.57232 1.3525516 0.0113219
 6518.08483 1.3459464 0.0110047
 6524.59735 1.3330899 0.0117533
 6531.12223 1.3226941 0.0112623
 6537.65889 1.3120188 0.0108724
 6544.19555 1.3052016 0.0105362
 6550.74458 1.2979578 0.0102575
 6557.29302 1.2932622 0.0101047
 6563.85441 1.2915878 0.0099711
 6570.41522 1.2831360 0.0098450
 6576.98780 1.2770379 0.0097166
 6583.56097 1.2739686 0.0095787
 6590.14592 1.2661834 0.0094479
 6596.73087 1.2580912 0.0093278
 6603.32818 1.2503735 0.0092091
 6609.93728 1.2510597 0.0090838
 6616.54637 1.2465143 0.0089695
 6623.16724 1.2411251 0.0088651
 6629.78870 1.2353652 0.0087688
 6636.42194 1.2303791 0.0086813
 6643.05518 1.2242451 0.0086151
 6649.70019 1.2176036 0.0085586
 6656.34580 1.2158931 0.0084790
 6663.00318 1.2141815 0.0084053
 6669.66056 1.2120001 0.0083084
 6676.32972 1.2074052 0.0083248
 6683.01125 1.2017435 0.0083629
 6689.69277 1.2017438 0.0084067
 6696.38608 1.1980783 0.0084620
 6703.07997 1.1987025 0.0084891
 6709.78564 1.2018961 0.0084678
 6716.50309 1.2002467 0.0084557
 6723.20876 1.1954498 0.0084570
 6729.93858 1.1991289 0.0084443
 6736.66781 1.2045178 0.0084146
 6743.40999 1.2096384 0.0083604
 6750.15158 1.2128710 0.0082045
 6756.89317 1.2167294 0.0081168
 6763.65950 1.2154694 0.0080204
 6770.42524 1.2126365 0.0079325
 6777.19098 1.2154303 0.0078475
 6783.96908 1.2175914 0.0077450
 6790.74718 1.2158368 0.0076157
 6797.53707 1.2086769 0.0074936
 6804.33932 1.2013141 0.0074130
 6811.14098 1.1925344 0.0073483
 6817.95559 1.1880981 0.0073102
 6824.78140 1.1812094 0.0073039
 6831.59601 1.1731695 0.0072843
 6838.43418 1.1598822 0.0072438
 6845.27235 1.1429896 0.0072155
 6852.11052 1.1258508 0.0072190
 6858.97284 1.1130540 0.0071239
 6865.82338 1.0965388 0.0070538
 6872.69747 1.0829765 0.0070127
 6879.57215 1.0722245 0.0070072
 6886.44683 1.0639347 0.0070183
 6893.33329 1.0538276 0.0070773
 6900.23153 1.0474200 0.0070266
 6907.13036 1.0484883 0.0070340
 6914.04096 1.0475137 0.0070435
 6920.95157 1.0483007 0.0070256
 6927.87395 1.0504425 0.0069648
 6934.79692 1.0551965 0.0069038
 6941.73167 1.0615424 0.0067695
 6948.67819 1.0713067 0.0067221
 6955.62531 1.0775498 0.0066448
 6962.58420 1.0806243 0.0065954
 6969.54310 1.0835963 0.0065529
 6976.51377 1.0882432 0.0064801
 6983.48503 1.0912774 0.0064964
 6990.47984 1.0960315 0.0064825
 6997.46288 1.1000742 0.0064886
 7004.47006 1.1069868 0.0064717
 7011.46488 1.1177552 0.0064096
 7018.48442 1.1282496 0.0063912
 7025.50338 1.1352130 0.0063635
 7032.52234 1.1416743 0.0063370
 7039.55367 1.1505427 0.0062539
 7046.59736 1.1539004 0.0062720
 7053.64047 1.1547076 0.0062508
 7060.69594 1.1560910 0.0062236
 7067.76319 1.1535726 0.0061652
 7074.83043 1.1529014 0.0061545
 7081.89768 1.1475105 0.0061725
 7088.98966 1.1447960 0.0061526
 7096.06869 1.1400330 0.0061261
 7103.17245 1.1338891 0.0061220
 7110.27621 1.1281815 0.0061215
 7117.37997 1.1220994 0.0061724
 7124.50729 1.1195005 0.0061447
 7131.62341 1.1173602 0.0061647
 7138.76309 1.1209213 0.0061807
 7145.90277 1.1238674 0.0061945
 7153.04246 1.1265166 0.0062146
 7160.19450 1.1268588 0.0062221
 7167.35833 1.1290591 0.0062200
 7174.52216 1.1274583 0.0061627
 7181.69776 1.1256183 0.0061809
 7188.88632 1.1246195 0.0061482
 7196.07429 1.1272043 0.0060723
 7203.26226 1.1234578 0.0060566
 7210.47438 1.1193410 0.0060754
 7217.68649 1.1149311 0.0059899
 7224.89861 1.1064231 0.0059597
 7232.12250 1.0978063 0.0059553
 7239.35876 1.0895302 0.0059222
 7246.59502 1.0822989 0.0058324
 7253.84364 1.0781780 0.0057880
 7261.10405 1.0731777 0.0057565
 7268.36445 1.0685313 0.0057224
 7275.63663 1.0651668 0.0056893
 7282.90940 1.0611664 0.0056642
 7290.19395 1.0563608 0.0056132
 7297.47791 1.0533407 0.0056463
 7304.77483 1.0503191 0.0055908
 7312.08352 1.0430270 0.0055861
 7319.39221 1.0394756 0.0056276
 7326.71268 1.0356964 0.0055856
 7334.04552 1.0318174 0.0055871
 7341.37836 1.0262132 0.0056374
 7348.72297 1.0191067 0.0056001
 7356.06759 1.0127972 0.0055999
 7363.42457 1.0016136 0.0055525
 7370.78155 0.9983073 0.0055806
 7378.16268 0.9961910 0.0055619
 7385.54321 0.9891521 0.0054956
 7392.92434 0.9854600 0.0055073
 7400.31724 0.9781942 0.0054807
 7407.72251 0.9712080 0.0054050
 7415.12778 0.9667953 0.0054093
 7422.54483 0.9596298 0.0053534
 7429.96188 0.9538271 0.0053495
 7437.39129 0.9489520 0.0053231
 7444.83249 0.9428707 0.0052927
 7452.27368 0.9359199 0.0053184
 7459.72724 0.9319497 0.0053088
 7467.19258 0.9315028 0.0053558
 7474.65791 0.9336329 0.0053988
 7482.13562 0.9349752 0.0054135
 7489.61273 0.9361551 0.0054233
 7497.10221 0.9397166 0.0055305
 7504.60406 0.9432501 0.0055934
 7512.10591 0.9494063 0.0056275
 7519.61953 0.9545585 0.0057409
 7527.14494 0.9581656 0.0057602
 7534.65856 0.9636695 0.0058486
 7542.19633 0.9702099 0.0058351
 7549.74647 0.9739710 0.0058750
 7557.29602 0.9772629 0.0058800
 7564.85793 0.9810634 0.0058896
 7572.41985 0.9879293 0.0059073
 7579.99354 0.9933889 0.0058986
 7587.56782 0.9983038 0.0058795
 7595.15388 1.0056341 0.0058649
 7602.75172 1.0142148 0.0058212
 7610.36192 1.0235771 0.0059458
 7617.97213 1.0267951 0.0060982
 7625.58233 1.0221055 0.0058737
 7633.21668 1.0189399 0.0057376
 7640.85102 1.0145913 0.0057763
 7648.48478 1.0064173 0.0057717
 7656.13150 1.0027001 0.0058090
 7663.78999 0.9984860 0.0058506
 7671.46026 0.9981204 0.0058906
 7679.13053 0.9930617 0.0059067
 7686.80080 0.9891565 0.0059239
 7694.49580 0.9803302 0.0059458
 7702.19022 0.9764314 0.0058662
 7709.89700 0.9773507 0.0057758
 7717.60319 0.9781803 0.0056846
 7725.32175 0.9810705 0.0055978
 7733.05268 0.9856411 0.0055256
 7740.77124 0.9909120 0.0054664
 7748.51453 0.9945496 0.0054060
 7756.26901 0.9957345 0.0055222
 7764.02408 0.9901963 0.0055650
 7771.79093 0.9867826 0.0054248
 7779.55778 0.9830211 0.0053654
 7787.34877 0.9796285 0.0053867
 7795.12798 0.9785309 0.0053446
 7802.91897 0.9772694 0.0053329
 7810.73411 0.9759507 0.0053233
 7818.53688 0.9743265 0.0053134
 7826.35202 0.9702920 0.0053081
 7834.17952 0.9632550 0.0053226
 7842.01880 0.9589289 0.0053028
 7849.85808 0.9573551 0.0053598
 7857.70914 0.9598187 0.0053475
 7865.57257 0.9605429 0.0054079
 7873.43599 0.9619637 0.0054179
 7881.31178 0.9648799 0.0054467
 7889.18699 0.9668175 0.0054192
 7897.07456 0.9662966 0.0054071
 7904.97449 0.9622072 0.0054716
 7912.88562 0.9581761 0.0055276
 7920.79733 0.9561848 0.0056020
 7928.72142 0.9542192 0.0056303
 7936.64491 0.9491906 0.0057128
 7944.58077 0.9439307 0.0057884
 7952.52840 0.9352388 0.0059789
 7960.48841 0.9298837 0.0061280
 7968.44841 0.9258184 0.0061437
 7976.40841 0.9199769 0.0062489
 7984.39197 0.9109849 0.0062666
 7992.37612 0.9094760 0.0062212
 8000.37204 0.9064419 0.0062178
 8008.36856 0.9070609 0.0061560
 8016.37626 0.9050409 0.0061591
 8024.39692 0.9047385 0.0061558
 8032.41699 0.9024616 0.0061242
 8040.44884 0.8964769 0.0060579
 8048.49364 0.8913654 0.0059810
 8056.53785 0.8863665 0.0060174
 8064.59385 0.8844453 0.0060092
 8072.66220 0.8798667 0.0059217
 8080.73115 0.8720912 0.0058599
 8088.81129 0.8655321 0.0057562
 8096.90379 0.8627977 0.0056772
 8104.99629 0.8562791 0.0056020
 8113.11294 0.8518462 0.0055580
 8121.21781 0.8482999 0.0054832
 8129.34624 0.8450655 0.0054429
 8137.47525 0.8425416 0.0054229
 8145.61604 0.8420506 0.0053508
 8153.75683 0.8371409 0.0052965
 8161.90940 0.8364503 0.0052501
 8170.07434 0.8337370 0.0052838
 8178.23928 0.8289176 0.0052760
 8186.42836 0.8234572 0.0052555
 8194.60566 0.8206516 0.0052515
 8202.80652 0.8165212 0.0052504
 8211.00797 0.8115451 0.0052776
 8219.22060 0.8090287 0.0052364
 8227.44619 0.8027854 0.0052493
 8235.67120 0.7980179 0.0052781
 8243.90857 0.7955704 0.0052712
 8252.14594 0.7920113 0.0052453
 8260.39508 0.7826801 0.0052563
 8268.65660 0.7781650 0.0052787
 8276.92989 0.7739469 0.0053506
 8285.20377 0.7699491 0.0053226
 8293.48884 0.7687500 0.0053288
 8301.78686 0.7638087 0.0053700
 8310.08430 0.7607408 0.0054832
 8318.40588 0.7604191 0.0056706
 8326.71568 0.7615670 0.0059218
 8335.04904 0.7622906 0.0061930
 8343.38299 0.7671041 0.0065415
 8351.71694 0.7740075 0.0067526
 8360.07444 0.7760779 0.0069197
 8368.43253 0.7784657 0.0069201
 8376.80240 0.7842218 0.0068792
 8385.18464 0.7852754 0.0068109
 8393.56628 0.7894325 0.0066487
 8401.96030 0.7939954 0.0063140
 8410.36668 0.7948530 0.0060104
 8418.77306 0.7915648 0.0058400
 8427.19122 0.7864481 0.0058851
 8435.62115 0.7795624 0.0058624
 8444.06346 0.7744484 0.0057764
 8452.50576 0.7663841 0.0057435
 8460.94806 0.7535865 0.0058205
 8469.41451 0.7478425 0.0058400
 8477.89273 0.7411261 0.0058857
 8486.35918 0.7390150 0.0058694
 8494.84977 0.7348251 0.0058226
 8503.35273 0.7298648 0.0058180
 8511.84332 0.7262945 0.0057833
 8520.35806 0.7272188 0.0057362
 8528.88457 0.7224872 0.0057817
 8537.41109 0.7214224 0.0058303
 8545.94997 0.7204101 0.0058582
 8554.50062 0.7254162 0.0059181
 8563.05187 0.7314808 0.0058875
 8571.61490 0.7319794 0.0058708
 8580.18970 0.7317751 0.0059099
 8588.76450 0.7305073 0.0060013
 8597.35167 0.7319874 0.0060443
 8605.95062 0.7311029 0.0060921
 8614.56193 0.7279341 0.0060838
 8623.17324 0.7234521 0.0060864
 8631.79634 0.7257893 0.0060796
 8640.43120 0.7241060 0.0061182
 8649.06666 0.7246519 0.0061234
 8657.72626 0.7238754 0.0061606
 8666.38528 0.7254705 0.0061991
 8675.04488 0.7265025 0.0061484
 8683.71626 0.7291993 0.0060598
 8692.41179 0.7276872 0.0060283
 8701.09553 0.7321168 0.0060227
 8709.80284 0.7331226 0.0060211
 8718.51073 0.7362302 0.0060057
 8727.23040 0.7368302 0.0060304
 8735.96243 0.7387056 0.0060235
 8744.69388 0.7433301 0.0060046
 8753.43769 0.7418736 0.0060019
 8762.19387 0.7388242 0.0060179
 8770.96124 0.7369197 0.0061172
 8779.72920 0.7410064 0.0060796
 8788.50952 0.7374155 0.0059932
 8797.30163 0.7323059 0.0059257
 8806.09373 0.7286947 0.0058487
 8814.89761 0.7270277 0.0057779
 8823.71385 0.7286436 0.0057052
 8832.54188 0.7240388 0.0056518
 8841.37049 0.7182236 0.0055708
 8850.21088 0.7121981 0.0055309
 8859.06305 0.7084467 0.0055119
 8867.92759 0.7060594 0.0054572
 8876.79153 0.7024547 0.0054063
 8885.66844 0.6957848 0.0053884
 8894.55712 0.6908412 0.0054495
 8903.45758 0.6888233 0.0054806
 8912.35803 0.6839832 0.0054846
 8921.27086 0.6781067 0.0054893
 8930.18309 0.6762711 0.0055359
 8939.12006 0.6742787 0.0056546
 8948.05703 0.6704785 0.0058013
 8957.00578 0.6608307 0.0059897
 8965.96689 0.6538540 0.0062035
 8974.92741 0.6549016 0.0063701
 8983.90031 0.6522114 0.0064930
 8992.88556 0.6482342 0.0065361
 9001.88260 0.6364323 0.0065704
 9010.89200 0.6297162 0.0065573
 9019.90081 0.6265429 0.0064405
 9028.92199 0.6292422 0.0062366
 9037.94317 0.6320948 0.0059336
 9046.98850 0.6305219 0.0057940
 9056.03382 0.6243241 0.0057434
 9065.09151 0.6199319 0.0058334
 9074.16098 0.6209800 0.0061631
 9083.23045 0.6179540 0.0062879
 9092.31170 0.6185125 0.0061484
 9101.40531 0.6187388 0.0061705
 9110.51070 0.6132801 0.0062965
 9119.61668 0.6091899 0.0064665
 9128.73444 0.6059743 0.0065831
 9137.86397 0.6021865 0.0067506
 9147.00588 0.6033188 0.0066316
 9156.14778 0.6002409 0.0066562
 9165.31382 0.5973347 0.0066760
 9174.47928 0.5958081 0.0068530
 9183.65770 0.5975162 0.0068427
 9192.83552 0.6007537 0.0068024
 9202.02571 0.6019166 0.0068312
 9211.22768 0.6037136 0.0068513
 9220.44201 0.6043490 0.0069035
 9229.66813 0.6006857 0.0069674
 9238.89424 0.6005958 0.0072037
 9248.13272 0.5995521 0.0077287
 9257.38298 0.6011638 0.0074413
 9266.63323 0.6036614 0.0071032
 9275.90764 0.6058168 0.0069322
 9285.18204 0.6030149 0.0068300
 9294.46881 0.6040536 0.0066517
 9303.76735 0.6079280 0.0064688
 9313.06590 0.6086034 0.0063492
 9322.38859 0.6072711 0.0061284
 9331.69950 0.6051433 0.0060259
 9341.03397 0.6041490 0.0060137
 9350.38081 0.6010829 0.0060576
 9359.72764 0.6006860 0.0059137
 9369.08684 0.5970598 0.0058683
 9378.45782 0.5977992 0.0059072
 9387.84058 0.5971182 0.0059153
 9397.22334 0.5949785 0.0057531
 9406.61846 0.5885652 0.0057858
 9416.02595 0.5831859 0.0059434
 9425.44522 0.5815758 0.0060447
 9434.86449 0.5773221 0.0061739
 9444.30731 0.5724357 0.0063512
 9453.75073 0.5677881 0.0067052
 9463.20650 0.5646454 0.0070582
 9472.67347 0.5642734 0.0074202
 9482.14103 0.5566552 0.0076622
 9491.62037 0.5491695 0.0078899
 9501.12443 0.5413287 0.0078818
 9510.61555 0.5413851 0.0077831
 9520.13139 0.5392813 0.0079656
 9529.64724 0.5340829 0.0078050
 9539.18723 0.5330940 0.0073981
 9548.72663 0.5364023 0.0070325
 9558.26662 0.5435041 0.0066456
 9567.83076 0.5431163 0.0065671
 9577.39430 0.5405990 0.0066117
 9586.97021 0.5368364 0.0068641
 9596.55849 0.5342416 0.0072894
 9606.15855 0.5324401 0.0075648
 9615.75861 0.5256981 0.0078188
 9625.38281 0.5202637 0.0077788
 9635.00701 0.5135891 0.0077918
 9644.64358 0.5083023 0.0078665
 9654.29193 0.5055534 0.0078146
 9663.94027 0.4955206 0.0078022
 9673.61276 0.4985159 0.0076811
 9683.28525 0.4965440 0.0076186
 9692.95774 0.5020097 0.0076247
 9702.65379 0.5034060 0.0085536
 9712.36279 0.5055028 0.0082019
 9722.07120 0.5067599 0.0082792
 9731.80435 0.5155418 0.0083684
 9741.52454 0.5183575 0.0084471
 9751.26946 0.5187541 0.0084487
 9761.02675 0.5136597 0.0084312
 9770.78345 0.5093352 0.0085938
 9780.55252 0.5090020 0.0089449
 9790.33337 0.5116688 0.0091125
 9800.12658 0.5100836 0.0089917
 9809.93157 0.5036065 0.0088316
 9819.73656 0.4992458 0.0088427
 9829.55392 0.4944605 0.0088427
 9839.39542 0.4963886 0.0088146
 9849.22455 0.4900484 0.0088659
 9859.07783 0.4925699 0.0087161
 9868.94348 0.4876543 0.0086351
 9878.80853 0.4876541 0.0085610
 9888.68655 0.4820662 0.0085203
 9898.57634 0.4818415 0.0083591
 9908.47790 0.4814344 0.0082026
 9918.39125 0.4838842 0.0081660
 9928.30460 0.4898292 0.0081541
 9938.23090 0.4877137 0.0080185
 9948.16780 0.4799912 0.0079745
 9958.11766 0.4813786 0.0079569
 9968.08047 0.4822387 0.0079650
 9978.04210 0.4794911 0.0079252
 9988.02847 0.4764912 0.0078395
 9998.01366 0.4712484 0.0077801
 10008.01181 0.4716324 0.0077239
 10018.02173 0.4642941 0.0078038
 10028.04461 0.4627964 0.0078465
 10038.06631 0.4639136 0.0078395
 10048.10097 0.4692431 0.0077793
 10058.15918 0.4766638 0.0077407
 10068.20561 0.4833031 0.0078145
 10078.27678 0.4895518 0.0078333
 10088.35855 0.4974912 0.0079072
 10098.45327 0.5053579 0.0079281
 10108.54799 0.5126958 0.0079634
 10118.65449 0.5197883 0.0080555
 10128.77277 0.5191575 0.0082256
 10138.90401 0.5224628 0.0082875
 10149.04702 0.5300414 0.0084735
 10159.19003 0.5295852 0.0085352
 10169.35660 0.5310469 0.0087078
 10179.52317 0.5248405 0.0090948
 10189.70269 0.5177863 0.0095978
 10199.89399 0.5119947 0.0103012
 10210.09707 0.4945633 0.0112333
 10220.31193 0.4857001 0.0121163
 10230.52678 0.4850584 0.0132444
 10240.75460 0.4796911 0.0139896
 10250.99418 0.4850472 0.0148953
 10261.24555 0.4735267 0.0154797
 10271.50870 0.4624401 0.0156823
 10281.78362 0.4620111 0.0155516
 10292.07150 0.4612043 0.0153582
 10302.35938 0.4622152 0.0150642
 10312.65903 0.4668690 0.0150910
 10322.97047 0.4719624 0.0154430
 10333.29368 0.4742816 0.0158238
 10343.62985 0.4813477 0.0160155
 10353.97779 0.4866761 0.0161746
 10364.32574 0.4937028 0.0164315
 10374.69724 0.4799547 0.0168424
 10385.06992 0.4693962 0.0173055
 10395.45320 0.4768565 0.0177215
 10405.84943 0.4661519 0.0172044
 10416.25744 0.4567522 0.0166657
 10426.67841 0.4696057 0.0163295
 10437.09820 0.4716670 0.0158820
 10447.54272 0.4777098 0.0157532
 10457.98724 0.4774794 0.0155548
 10468.44355 0.4755122 0.0154927
 10478.91162 0.4765263 0.0152732
 10489.39266 0.4739692 0.0150540
 10499.88429 0.4766448 0.0149434
 10510.37710 0.4722631 0.0147288
 10520.89465 0.4719838 0.0145541
 10531.42279 0.4641732 0.0143147
 10541.93916 0.4626960 0.0140232
 10552.49204 0.4711711 0.0140026
 10563.04492 0.4727064 0.0137556
 10573.61075 0.4817066 0.0135697
 10584.18719 0.4821516 0.0134770
 10594.76480 0.4748696 0.0134703
 10605.36479 0.4742392 0.0136520
 10615.96595 0.4772345 0.0139346
 10626.58008 0.4785134 0.0141441
 10637.20480 0.4781607 0.0141624
 10647.85426 0.4738206 0.0140417
 10658.49193 0.4737418 0.0140346
 10669.15317 0.4720950 0.0140723
 10679.82618 0.4709926 0.0141341
 10690.51215 0.4671535 0.0141807
 10701.19811 0.4596171 0.0143394
 10711.89468 0.4603623 0.0143405
 10722.60538 0.4540463 0.0142776
 10733.33846 0.4493806 0.0142685
 10744.05976 0.4446082 0.0143361
 10754.80579 0.4478662 0.0143535
 10765.56360 0.4485398 0.0145494
 10776.33437 0.4416098 0.0147394
 10787.11574 0.4418542 0.0149438
 10797.89828 0.4387560 0.0152113
 10808.69261 0.4416692 0.0155389
 10819.51048 0.4538353 0.0158760
 10830.32836 0.4556065 0.0163797
 10841.15920 0.4533271 0.0168817
 10852.00063 0.4586982 0.0171987
 10862.85502 0.4647702 0.0175337
 10873.70941 0.4562069 0.0179308
 10884.58853 0.4524044 0.0185069
 10895.47943 0.4511743 0.0190169
 10906.36915 0.4536228 0.0195456
 10917.27183 0.4560567 0.0202340
 10928.19924 0.4565995 0.0210335
 10939.12548 0.4609622 0.0215041
 10950.06466 0.4607803 0.0219004
 10961.01563 0.4467380 0.0223008
 10971.97838 0.4467962 0.0226992
 10982.95290 0.4502152 0.0232307
 10993.92860 0.4586570 0.0238420
 11004.92785 0.4442178 0.0246452
 11015.92711 0.4458539 0.0255788
 11026.94992 0.4444621 0.0265923
 11037.97273 0.4470292 0.0279351
 11049.00850 0.4599730 0.0290679
 11060.06782 0.4587926 0.0306024
 11071.12714 0.4582479 0.0328030
 11082.19824 0.4728832 0.0352593
 11093.28230 0.4777004 0.0389968
 11104.37813 0.4904890 0.0431049
 11115.47397 0.5022376 0.0485547
 11126.59335 0.5100858 0.0576305
 11137.71274 0.5237150 0.0708598
 11148.85687 0.5454697 0.0837712
 11160.00099 0.5527295 0.0977154
