# SOURCE  = 'Quimby et al. 2018' /                                                
# OBJECT  = 'PTF10hgi'           /                                                
# Z       =            0.0982000 / wavelengths in OBSERVER FRAME                 
# NORM    =          1.17720E-16 / fluxes divided by norm                         
# CLIPPED =                    1 / galaxy emission lines removed                  
# SMOOTHED=                    1 / spectrum has been smoothed                     
# COLUMN01= 'Wavelength (Angstrom)' /                                             
# COLUMN02= 'Flux Density (erg/s/cm2/A)' /                                        
# COLUMN03= 'Flux Density Uncertainty (erg/s/cm2/A)' /                            
# END                                                                             
# 
# 
# 
# 
# 
# 
# 
# 
# 
# 
# Converted to Observer Frame using z=0.0982
 3482.89623 2.0598929 0.1011974
 3486.38157 2.0055964 0.0984661
 3489.86690 1.9588127 0.0959612
 3493.35253 1.9243393 0.0935564
 3496.84994 1.9051025 0.0907275
 3500.34764 1.9270462 0.0887073
 3503.84505 1.9921097 0.0867652
 3507.35453 2.0032303 0.0853829
 3510.86430 2.0113590 0.0841593
 3514.37378 2.0765026 0.0828504
 3517.88326 2.0730600 0.0810834
 3521.40511 2.0817778 0.0789997
 3524.92666 2.1128368 0.0772454
 3528.44822 2.1328113 0.0748546
 3531.98213 2.1441338 0.0731919
 3535.51576 2.1075368 0.0718358
 3539.04938 2.1386275 0.0705790
 3542.58330 2.0889196 0.0693211
 3546.12900 2.1227362 0.0681404
 3549.67469 2.0990262 0.0671371
 3553.22039 2.0744529 0.0659006
 3556.77816 2.0399337 0.0639842
 3560.33622 2.0273535 0.0642368
 3563.89399 2.0279353 0.0633929
 3567.46383 2.0667167 0.0607585
 3571.02160 2.0786538 0.0590037
 3574.59144 2.0637093 0.0577078
 3578.17365 2.0384238 0.0564901
 3581.75556 2.0427446 0.0549709
 3585.33748 2.0174570 0.0540232
 3588.91939 1.9855520 0.0531526
 3592.51337 2.0147257 0.0523166
 3596.09529 2.0369895 0.0516480
 3599.70134 2.0619781 0.0508971
 3603.29533 2.0836351 0.0499155
 3606.90139 2.1127830 0.0492363
 3610.50744 2.0792136 0.0486011
 3614.11350 2.0473516 0.0480332
 3617.73163 2.0379920 0.0474729
 3621.34976 2.0142233 0.0464651
 3624.96789 1.9800632 0.0458611
 3628.59809 1.9811029 0.0453982
 3632.22829 1.9806601 0.0446124
 3635.85850 1.9863797 0.0437171
 3639.48870 2.0004971 0.0427415
 3643.13097 2.0072482 0.0412897
 3646.77325 2.0136199 0.0401960
 3650.42759 2.0186577 0.0391611
 3654.06987 2.0649085 0.0380941
 3657.72421 2.0970116 0.0369066
 3661.39063 2.1275029 0.0361810
 3665.04468 2.1385984 0.0355301
 3668.71110 2.1312079 0.0349746
 3672.37752 2.1256766 0.0344860
 3676.05601 2.1148691 0.0340178
 3679.73450 2.1066792 0.0337507
 3683.41270 2.0910850 0.0335061
 3687.09119 2.1028552 0.0333021
 3690.78175 2.0896585 0.0329798
 3694.47232 2.0790174 0.0331143
 3698.16288 2.0857356 0.0335300
 3701.86522 2.1114635 0.0331710
 3705.56785 2.1142220 0.0318723
 3709.27049 2.1249075 0.0312167
 3712.98490 2.1157017 0.0308229
 3716.69961 2.1286354 0.0304883
 3720.41432 2.1271424 0.0300356
 3724.12873 2.1207955 0.0297734
 3727.85551 2.1052642 0.0295367
 3731.58229 2.0931959 0.0292731
 3735.32085 2.0884492 0.0288684
 3739.04763 2.0598438 0.0286540
 3742.78648 2.0595086 0.0284235
 3746.53711 2.0420403 0.0282788
 3750.28803 2.0053973 0.0281646
 3754.02659 1.9811541 0.0280759
 3757.78959 1.9694744 0.0279686
 3761.54022 1.9697663 0.0276967
 3765.30321 1.9687805 0.0275954
 3769.06591 1.9718550 0.0275409
 3772.84098 1.9691451 0.0277981
 3776.61576 2.0063243 0.0274539
 3780.39082 1.9906285 0.0272709
 3784.16560 2.0082891 0.0270320
 3787.95274 2.0196128 0.0265705
 3791.73959 2.0230956 0.0263143
 3795.53880 2.0232122 0.0260040
 3799.32564 2.0306730 0.0254837
 3803.12456 2.0054600 0.0251624
 3806.93585 1.9799327 0.0248542
 3810.73477 1.9600008 0.0244755
 3814.54605 1.9272405 0.0242348
 3818.36911 1.9043305 0.0240118
 3822.18011 1.8833501 0.0236341
 3826.00346 1.8752502 0.0233690
 3829.83860 1.8798205 0.0230527
 3833.66166 1.8789939 0.0226041
 3837.49680 1.8751084 0.0222699
 3841.33222 1.8633333 0.0219848
 3845.17943 1.8683254 0.0214790
 3849.02664 1.8735479 0.0210243
 3852.87385 1.8786427 0.0206968
 3856.72135 1.8752580 0.0203035
 3860.58063 1.8662133 0.0201152
 3864.43991 1.8684573 0.0199066
 3868.31126 1.8653051 0.0196596
 3872.17054 1.8611518 0.0195119
 3876.04218 1.8502406 0.0193518
 3879.92561 1.8371795 0.0192429
 3883.79696 1.8204265 0.0191573
 3887.69246 1.7968097 0.0190613
 3891.57588 1.8057029 0.0189931
 3895.47138 1.7967019 0.0190015
 3899.36687 1.7989107 0.0189128
 3903.26237 1.8034724 0.0188749
 3907.16994 1.8014992 0.0186522
 3911.07751 1.8078208 0.0185251
 3914.98507 1.8258547 0.0184433
 3918.90471 1.8282330 0.0181633
 3922.82435 1.8453985 0.0179464
 3926.74400 1.8576231 0.0176209
 3930.66364 1.8511184 0.0174788
 3934.59535 1.8651936 0.0172065
 3938.53913 1.8786651 0.0169517
 3942.47085 1.8767376 0.0167180
 3946.41463 1.8794309 0.0164710
 3950.35842 1.8832328 0.0162801
 3954.31427 1.8632047 0.0161191
 3958.27013 1.8640964 0.0160603
 3962.22599 1.8649184 0.0160122
 3966.19392 1.8567024 0.0161245
 3970.14948 1.8626492 0.0162009
 3974.12948 1.8667088 0.0162289
 3978.09741 1.8725696 0.0163438
 3982.07741 1.8703430 0.0163955
 3986.05741 1.8670456 0.0165634
 3990.04919 1.8679833 0.0167152
 3994.04127 1.8671079 0.0165652
 3998.03334 1.8520612 0.0163371
 4002.02541 1.8518412 0.0162498
 4006.02927 1.8429291 0.0160042
 4010.03341 1.8311779 0.0158663
 4014.04963 1.8322490 0.0156889
 4018.06585 1.8283221 0.0155693
 4022.08177 1.8201165 0.0154562
 4026.09799 1.8045877 0.0152700
 4030.12628 1.7940876 0.0151289
 4034.15428 1.7836899 0.0148932
 4038.19464 1.7741430 0.0147142
 4042.23471 1.7691708 0.0145063
 4046.27507 1.7744659 0.0144135
 4050.31543 1.7637310 0.0142686
 4054.36757 1.7548901 0.0142010
 4058.42001 1.7448770 0.0141190
 4062.48422 1.7383857 0.0141046
 4066.54873 1.7363942 0.0141948
 4070.61294 1.7352027 0.0141695
 4074.68952 1.7204055 0.0141699
 4078.76580 1.7193784 0.0141782
 4082.84238 1.7072217 0.0141809
 4086.91867 1.7060001 0.0141760
 4091.00732 1.7009796 0.0140842
 4095.09568 1.7020415 0.0138862
 4099.19611 1.6949168 0.0137962
 4103.29683 1.6901593 0.0136006
 4107.39726 1.6859980 0.0134783
 4111.51006 1.6813663 0.0132661
 4115.61048 1.6836591 0.0131122
 4119.73506 1.6818860 0.0128795
 4123.84785 1.6828133 0.0126537
 4127.97243 1.6852645 0.0125559
 4132.10907 1.6805336 0.0123418
 4136.23394 1.6852003 0.0122437
 4140.37059 1.6890551 0.0120810
 4144.50723 1.6880573 0.0121957
 4148.65595 1.6874508 0.0121186
 4152.80496 1.6886749 0.0117641
 4156.96575 1.6874986 0.0118649
 4161.11447 1.6976727 0.0117191
 4165.27526 1.7104363 0.0115193
 4169.44812 1.7172092 0.0113451
 4173.60921 1.7276773 0.0113134
 4177.78207 1.7304621 0.0113394
 4181.96701 1.7349359 0.0113799
 4186.15194 1.7371238 0.0114384
 4190.33688 1.7399182 0.0115057
 4194.52181 1.7429249 0.0115149
 4198.71882 1.7370646 0.0116255
 4202.91582 1.7291796 0.0116425
 4207.12520 1.7272528 0.0117510
 4211.33428 1.7196862 0.0117524
 4215.54336 1.7100047 0.0118208
 4219.75244 1.7064847 0.0120077
 4223.97359 1.6949348 0.0118345
 4228.19474 1.6895446 0.0115441
 4232.42796 1.6881999 0.0114173
 4236.66119 1.6849360 0.0112174
 4240.89441 1.6795086 0.0110459
 4245.13941 1.6759064 0.0109716
 4249.38471 1.6690770 0.0108396
 4253.63000 1.6672711 0.0107024
 4257.88737 1.6663772 0.0105941
 4262.14474 1.6605332 0.0104608
 4266.41418 1.6558295 0.0103211
 4270.67155 1.6529435 0.0102495
 4274.94099 1.6489298 0.0101165
 4279.22220 1.6454642 0.0100276
 4283.50372 1.6422660 0.0099776
 4287.78523 1.6352615 0.0099425
 4292.06674 1.6261431 0.0099129
 4296.36033 1.6196352 0.0098785
 4300.65362 1.6197917 0.0098723
 4304.95927 1.6186866 0.0098466
 4309.26493 1.6171205 0.0099543
 4313.58236 1.6150012 0.0098072
 4317.88802 1.6125917 0.0096635
 4322.20575 1.6167445 0.0096730
 4326.53526 1.6158783 0.0095152
 4330.85299 1.6180652 0.0093940
 4335.18279 1.6100097 0.0093002
 4339.52437 1.6090363 0.0092599
 4343.86624 1.6050830 0.0091553
 4348.20811 1.5980302 0.0090906
 4352.56176 1.5951258 0.0090475
 4356.90364 1.5901879 0.0090453
 4361.26936 1.5846688 0.0090732
 4365.62331 1.5718619 0.0090701
 4369.98903 1.5665876 0.0090485
 4374.36712 1.5655181 0.0091290
 4378.73284 1.5585353 0.0091566
 4383.11093 1.5558450 0.0092253
 4387.50080 1.5529194 0.0092605
 4391.89096 1.5486498 0.0091859
 4396.28083 1.5507065 0.0091966
 4400.68307 1.5513552 0.0092332
 4405.07293 1.5469928 0.0092383
 4409.48695 1.5399160 0.0092858
 4413.88918 1.5399611 0.0093715
 4418.30319 1.5333034 0.0093686
 4422.72928 1.5334272 0.0093808
 4427.14358 1.5350008 0.0093592
 4431.58174 1.5346297 0.0093607
 4436.00783 1.5331647 0.0093863
 4440.44628 1.5309457 0.0093302
 4444.88443 1.5275451 0.0094609
 4449.33466 1.5208808 0.0094073
 4453.77282 1.5217026 0.0093041
 4458.23541 1.5172107 0.0092367
 4462.68564 1.5198011 0.0091372
 4467.16002 1.5229523 0.0090539
 4471.62232 1.5217600 0.0089667
 4476.09669 1.5278175 0.0089133
 4480.57136 1.5301945 0.0088645
 4485.04573 1.5339781 0.0088392
 4489.53218 1.5307759 0.0088119
 4494.03070 1.5325984 0.0087704
 4498.51714 1.5328315 0.0086968
 4503.01566 1.5327578 0.0086564
 4507.52625 1.5282108 0.0086118
 4512.02477 1.5245571 0.0085676
 4516.54743 1.5210387 0.0085556
 4521.05802 1.5135415 0.0085395
 4525.58068 1.5132955 0.0085371
 4530.10334 1.5023845 0.0085595
 4534.63808 1.4979192 0.0085501
 4539.17281 1.4923409 0.0084730
 4543.70755 1.4879389 0.0084406
 4548.25435 1.4792665 0.0084135
 4552.80116 1.4705654 0.0083865
 4557.36004 1.4672410 0.0083458
 4561.90684 1.4554424 0.0083094
 4566.47780 1.4488152 0.0082757
 4571.03667 1.4434478 0.0081980
 4575.60733 1.4371525 0.0081458
 4580.19035 1.4304976 0.0080780
 4584.77338 1.4261810 0.0080134
 4589.35640 1.4233854 0.0079293
 4593.93942 1.4166261 0.0078836
 4598.53422 1.4170479 0.0078421
 4603.14139 1.4147031 0.0078183
 4607.73649 1.4090670 0.0078569
 4612.34365 1.4046032 0.0079367
 4616.96260 1.3996052 0.0078813
 4621.58184 1.3955137 0.0078806
 4626.20108 1.3933980 0.0077643
 4630.82003 1.3966112 0.0077214
 4635.45134 1.3983355 0.0076831
 4640.09472 1.4040221 0.0076789
 4644.73781 1.4038908 0.0076933
 4649.38120 1.3978198 0.0077258
 4654.02429 1.4029001 0.0077489
 4658.67974 1.4047427 0.0077617
 4663.33490 1.4002166 0.0077466
 4668.00243 1.3969628 0.0077487
 4672.66967 1.3957807 0.0077419
 4677.34927 1.3926864 0.0077319
 4682.01650 1.3896736 0.0077333
 4686.70818 1.3902175 0.0077169
 4691.38748 1.3859223 0.0077221
 4696.07915 1.3854764 0.0077602
 4700.78261 1.3838989 0.0077082
 4705.48635 1.3784775 0.0076108
 4710.18980 1.3726403 0.0075684
 4714.89325 1.3704304 0.0075340
 4719.60907 1.3666039 0.0075023
 4724.33667 1.3592691 0.0074836
 4729.05219 1.3516414 0.0074775
 4733.79215 1.3482749 0.0074570
 4738.51975 1.3460813 0.0074678
 4743.25941 1.3463566 0.0074871
 4747.99937 1.3479077 0.0075064
 4752.75111 1.3483193 0.0075279
 4757.50285 1.3507851 0.0075533
 4762.26667 1.3486081 0.0075317
 4767.01870 1.3455125 0.0075442
 4771.79458 1.3451476 0.0075592
 4776.55840 1.3421514 0.0075771
 4781.33428 1.3430698 0.0076045
 4786.12224 1.3369621 0.0076051
 4790.91019 1.3332309 0.0076468
 4795.69815 1.3312984 0.0076523
 4800.49847 1.3279480 0.0075335
 4805.29850 1.3295430 0.0075050
 4810.09853 1.3324335 0.0074772
 4814.91063 1.3341827 0.0074049
 4819.72273 1.3322992 0.0073664
 4824.54690 1.3418975 0.0102769
 4829.37108 1.3342143 0.0103406
 4834.19525 1.3181213 0.0102970
 4839.03150 1.3083183 0.0101534
 4843.86774 1.3005883 0.0100988
 4848.71606 1.2931260 0.0100612
 4853.56438 1.2959772 0.0099999
 4858.42447 1.2919905 0.0099375
 4863.27279 1.2828233 0.0098724
 4868.14525 1.2774961 0.0098176
 4873.01771 1.2803494 0.0097507
 4877.89017 1.2803127 0.0096880
 4882.76263 1.2803437 0.0095583
 4887.64687 1.2803873 0.0094991
 4892.53141 1.2804530 0.0094408
 4897.42801 1.2755249 0.0093960
 4902.32462 1.2721931 0.0093510
 4907.22123 1.2681582 0.0093209
 4912.12961 1.2616436 0.0092947
 4917.05036 1.2449381 0.0092300
 4921.95904 1.2364283 0.0093442
 4926.89157 1.2213657 0.0094487
 4931.81232 1.2159292 0.0092540
 4936.74514 1.2108458 0.0092663
 4941.67796 1.2092056 0.0093154
 4946.62227 1.2107447 0.0093743
 4951.56717 1.2032899 0.0095038
 4956.52443 1.2010030 0.0096273
 4961.48110 1.1939243 0.0097614
 4966.43777 1.1945184 0.0098588
 4971.40681 1.1907643 0.0099269
 4976.37585 1.1957794 0.0098566
 4981.35667 1.1921393 0.0098483
 4986.33749 1.1911682 0.0097192
 4991.31830 1.1845570 0.0095597
 4996.31149 1.1811144 0.0096624
 5001.31645 1.1725181 0.0092438
 5006.30963 1.1648610 0.0090733
 5011.32696 1.1545578 0.0090590
 5016.33192 1.1456325 0.0092818
 5021.34925 1.1382017 0.0093775
 5026.36599 1.1309196 0.0092815
 5031.39510 1.1254064 0.0093661
 5036.42479 1.1262311 0.0094245
 5041.46568 1.1206917 0.0093804
 5046.50715 1.1198877 0.0093252
 5051.56040 1.1181943 0.0093023
 5056.60187 1.1107318 0.0091868
 5061.66690 1.1124309 0.0089779
 5066.72015 1.1113507 0.0088499
 5071.78577 1.1108232 0.0087260
 5076.86316 1.1078700 0.0086353
 5081.94056 1.1088204 0.0085977
 5087.01795 1.1036119 0.0086620
 5092.10771 1.1098859 0.0088959
 5097.19689 1.1141514 0.0086233
 5102.29843 1.1154078 0.0086582
 5107.39997 1.1072837 0.0087130
 5112.51387 1.1026328 0.0087264
 5117.62719 1.0966403 0.0087736
 5122.74110 1.0970005 0.0088789
 5127.86678 1.1025892 0.0088478
 5132.99246 1.1005651 0.0088461
 5138.12992 1.0964062 0.0088323
 5143.26797 1.0946730 0.0088076
 5148.40544 1.0886770 0.0087720
 5153.55526 1.0843104 0.0087277
 5158.70509 1.0810003 0.0086634
 5163.86729 1.0799972 0.0086799
 5169.02889 1.0808260 0.0086841
 5174.20287 1.0776976 0.0086626
 5179.37684 1.0688061 0.0087687
 5184.55081 1.0689049 0.0087680
 5189.73656 1.0706022 0.0088028
 5194.93468 1.0711153 0.0088386
 5200.12102 1.0694489 0.0088586
 5205.33091 1.0648034 0.0088494
 5210.52903 1.0680119 0.0088271
 5215.73892 1.0685974 0.0087867
 5220.96119 1.0714968 0.0087234
 5226.18345 1.0670780 0.0086086
 5231.40571 1.0594791 0.0085897
 5236.63975 1.0507032 0.0084929
 5241.87379 1.0467722 0.0084634
 5247.12019 1.0425438 0.0084978
 5252.36660 1.0435748 0.0084482
 5257.61300 1.0382873 0.0084650
 5262.87119 1.0353721 0.0084646
 5268.14174 1.0267099 0.0084713
 5273.39992 1.0129085 0.0084571
 5278.68225 1.0105139 0.0085314
 5283.95280 1.0057807 0.0085331
 5289.23513 1.0011544 0.0085937
 5294.52982 1.0087856 0.0087046
 5299.82452 1.0127373 0.0087109
 5305.13099 1.0162975 0.0088022
 5310.42569 1.0192596 0.0088006
 5315.74394 1.0181366 0.0088209
 5321.06277 1.0197908 0.0088196
 5326.38161 1.0207692 0.0088170
 5331.69986 1.0240598 0.0088013
 5337.04285 1.0296984 0.0087937
 5342.37346 1.0378754 0.0087250
 5347.71645 1.0475810 0.0087651
 5353.07121 1.0451407 0.0086995
 5358.41419 1.0392934 0.0087430
 5363.78073 1.0318263 0.0086807
 5369.13549 1.0155249 0.0086653
 5374.51440 1.0101919 0.0086380
 5379.88153 1.0013425 0.0085949
 5385.27280 0.9900299 0.0085616
 5390.65171 0.9884396 0.0084761
 5396.04239 0.9794801 0.0084797
 5401.44544 0.9728606 0.0084018
 5406.83671 0.9577187 0.0084223
 5412.25154 0.9484504 0.0083744
 5417.65459 0.9398853 0.0083767
 5423.08178 0.9399745 0.0083705
 5428.49720 0.9421195 0.0083573
 5433.92440 0.9413486 0.0083667
 5439.36337 0.9424124 0.0084132
 5444.80293 0.9437085 0.0084373
 5450.25427 0.9447343 0.0085558
 5455.69324 0.9397419 0.0085764
 5461.15695 0.9412869 0.0086825
 5466.62006 0.9389271 0.0086566
 5472.08377 0.9294286 0.0086592
 5477.55866 0.9250040 0.0086107
 5483.03415 0.9252114 0.0085214
 5488.52200 0.9260537 0.0084143
 5494.00926 0.9244210 0.0083114
 5499.49711 0.9236113 0.0081776
 5504.99615 0.9297147 0.0080863
 5510.50814 0.9267730 0.0080058
 5516.01955 0.9264377 0.0079312
 5521.53154 0.9217660 0.0079569
 5527.05472 0.9270498 0.0079517
 5532.57850 0.9259494 0.0079131
 5538.11464 0.9234021 0.0078803
 5543.65019 0.9276232 0.0078705
 5549.19810 0.9307567 0.0079108
 5554.74543 0.9281192 0.0079151
 5560.30571 0.9266359 0.0080144
 5565.86541 0.9186503 0.0081029
 5571.42510 0.9083531 0.0081145
 5576.99716 0.8942834 0.0082122
 5582.58100 0.8889930 0.0082392
 5588.16543 0.8888344 0.0084552
 5593.74927 0.8828045 0.0086304
 5599.34547 0.8690681 0.0083358
 5604.94109 0.8710688 0.0081426
 5610.54907 0.8701075 0.0081343
 5616.15765 0.8620846 0.0081856
 5621.77741 0.8503909 0.0083720
 5627.39776 0.8455172 0.0085547
 5633.02989 0.8471460 0.0087073
 5638.65024 0.8451236 0.0089032
 5644.29414 0.8504090 0.0090677
 5649.93864 0.8610139 0.0089734
 5655.59491 0.8650873 0.0088741
 5661.25118 0.8571440 0.0086781
 5666.90745 0.8490884 0.0084699
 5672.57609 0.8499582 0.0082226
 5678.24473 0.8543623 0.0080831
 5683.92515 0.8561598 0.0079821
 5689.60556 0.8605910 0.0079743
 5695.29776 0.8598443 0.0084975
 5701.00232 0.8527736 0.0082312
 5706.69510 0.8481693 0.0081817
 5712.39966 0.8533481 0.0081448
 5718.11659 0.8501320 0.0081968
 5723.83293 0.8466365 0.0082165
 5729.56163 0.8435928 0.0082317
 5735.29034 0.8424719 0.0082110
 5741.03141 0.8389075 0.0082266
 5746.76012 0.8317513 0.0082256
 5752.51297 0.8288903 0.0082646
 5758.26523 0.8280039 0.0082037
 5764.03044 0.8178033 0.0082023
 5769.79507 0.8095100 0.0081933
 5775.56029 0.8071685 0.0081911
 5781.33728 0.8144810 0.0081818
 5787.11428 0.8188506 0.0081477
 5792.90305 0.8169265 0.0081684
 5798.69182 0.8170193 0.0081962
 5804.49296 0.8102481 0.0082390
 5810.30646 0.8084391 0.0082995
 5816.11938 0.8068773 0.0083854
 5821.93230 0.8018345 0.0084090
 5827.74580 0.8059613 0.0084953
 5833.58286 0.8066059 0.0085643
 5839.40815 0.8081356 0.0086561
 5845.24521 0.8044909 0.0087792
 5851.09463 0.7991781 0.0089102
 5856.94406 0.7968037 0.0090427
 5862.80527 0.8014724 0.0091244
 5868.66647 0.8021867 0.0092598
 5874.54004 0.8064266 0.0094115
 5880.41362 0.8159006 0.0095483
 5886.28719 0.8215244 0.0098554
 5892.18432 0.8337200 0.0098891
 5898.07025 0.8407391 0.0099492
 5903.96738 0.8428931 0.0100887
 5909.87746 0.8430187 0.0102938
 5915.78696 0.8448368 0.0105207
 5921.69645 0.8457186 0.0107868
 5927.63009 0.8323671 0.0109819
 5933.55195 0.8269935 0.0112121
 5939.48559 0.8273712 0.0115238
 5945.43160 0.7997567 0.0115601
 5951.36523 0.7866610 0.0115784
 5957.32302 0.7689795 0.0115996
 5963.28080 0.7627047 0.0116035
 5969.23858 0.7581054 0.0115577
 5975.20873 0.7478791 0.0115295
 5981.19066 0.7442183 0.0115102
 5987.17259 0.7416764 0.0114742
 5993.15451 0.7450392 0.0116029
 5999.14881 0.7481916 0.0118167
 6005.15488 0.7513377 0.0116376
 6011.16095 0.7547772 0.0116765
 6017.16702 0.7676948 0.0115805
 6023.18487 0.7708545 0.0116801
 6029.20331 0.7767022 0.0116714
 6035.23353 0.7741388 0.0118405
 6041.27552 0.7761972 0.0119787
 6047.31811 0.7861624 0.0123812
 6053.36010 0.7882874 0.0128777
 6059.41446 0.7893354 0.0130506
 6065.46882 0.7991679 0.0139420
 6071.53496 0.8088526 0.0148082
 6077.61346 0.8143029 0.0147139
 6083.69197 0.8123639 0.0151427
 6089.78284 0.8083727 0.0157342
 6095.86135 0.8222525 0.0155334
 6101.96400 0.8159465 0.0161726
 6108.06606 0.8152851 0.0164977
 6114.16871 0.8015074 0.0170416
 6120.28372 0.7873369 0.0169882
 6126.40993 0.7898159 0.0171484
 6132.53672 0.7958685 0.0164763
 6138.66351 0.7922319 0.0163024
 6144.80209 0.7889289 0.0159565
 6150.95302 0.7811633 0.0150450
 6157.10396 0.7799020 0.0146434
 6163.25490 0.7744602 0.0144313
 6169.41762 0.7692072 0.0140639
 6175.59270 0.7744317 0.0133460
 6181.76778 0.7696490 0.0133081
 6187.95464 0.7709069 0.0132132
 6194.14150 0.7676408 0.0130701
 6200.32836 0.7662370 0.0127731
 6206.53996 0.7621716 0.0128586
 6212.73860 0.7680295 0.0128530
 6218.95019 0.7623026 0.0130487
 6225.17297 0.7580854 0.0130591
 6231.39634 0.7523491 0.0130511
 6237.63149 0.7569833 0.0130537
 6243.86664 0.7656404 0.0132684
 6250.11416 0.7679179 0.0132529
 6256.36109 0.7668895 0.0134260
 6262.62097 0.7603909 0.0129551
 6268.88026 0.7533649 0.0128196
 6275.15133 0.7467470 0.0128153
 6281.42299 0.7461092 0.0125986
 6287.70643 0.7440637 0.0123871
 6294.00224 0.7485074 0.0119164
 6300.28567 0.7421906 0.0119436
 6306.59326 0.7460641 0.0118263
 6312.90084 0.7475283 0.0117468
 6319.20842 0.7486628 0.0117080
 6325.52778 0.7449365 0.0117672
 6331.85951 0.7493117 0.0117672
 6338.19124 0.7454516 0.0117861
 6344.52296 0.7418521 0.0118136
 6350.86706 0.7400506 0.0118393
 6357.22293 0.7443015 0.0119025
 6363.57880 0.7416890 0.0118663
 6369.94645 0.7395999 0.0118241
 6376.31469 0.7364289 0.0117764
 6382.69411 0.7310190 0.0115273
 6389.07413 0.7318637 0.0117447
 6395.46651 0.7344136 0.0117221
 6401.85831 0.7349139 0.0117204
 6408.26247 0.7293207 0.0117534
 6414.66663 0.7309699 0.0116084
 6421.08257 0.7311106 0.0118956
 6427.51087 0.7306747 0.0119356
 6433.93917 0.7239360 0.0120262
 6440.36748 0.7148876 0.0120143
 6446.80756 0.7069716 0.0122044
 6453.26001 0.7093773 0.0128241
 6459.71246 0.7039198 0.0130430
 6466.17669 0.6978692 0.0130297
 6472.62914 0.7035647 0.0131543
 6479.10573 0.7096609 0.0132171
 6485.59410 0.7037844 0.0134756
 6492.07069 0.7061579 0.0129690
 6498.57084 0.7043334 0.0127726
 6505.05980 0.7082922 0.0125454
 6511.57232 0.7157198 0.0123672
 6518.08483 0.7170340 0.0118540
 6524.59735 0.7166244 0.0116918
 6531.12223 0.7172341 0.0115836
 6537.65889 0.7199728 0.0114951
 6544.19555 0.7178191 0.0113323
 6550.74458 0.7169972 0.0112594
 6557.29302 0.7133688 0.0111911
 6563.85441 0.7120327 0.0111226
 6570.41522 0.7113625 0.0109807
 6576.98780 0.7141391 0.0109079
 6583.56097 0.7137550 0.0108379
 6590.14592 0.7131103 0.0107890
 6596.73087 0.7112396 0.0106814
 6603.32818 0.7058960 0.0106236
 6609.93728 0.6999890 0.0105698
 6616.54637 0.6957019 0.0105240
 6623.16724 0.6894259 0.0104284
 6629.78870 0.6905154 0.0103728
 6636.42194 0.6858254 0.0103297
 6643.05518 0.6865658 0.0102941
 6649.70019 0.6779454 0.0102250
 6656.34580 0.6778651 0.0101821
 6663.00318 0.6791751 0.0101470
 6669.66056 0.6825368 0.0099065
 6676.32972 0.6869451 0.0100717
 6683.01125 0.6881331 0.0100577
 6689.69277 0.6907203 0.0100526
 6696.38608 0.6927159 0.0098431
 6703.07997 0.6978620 0.0100242
 6709.78564 0.7000944 0.0100036
 6716.50309 0.7015879 0.0097709
 6723.20876 0.6973027 0.0097288
 6729.93858 0.6930276 0.0098814
 6736.66781 0.6911781 0.0098376
 6743.40999 0.6819646 0.0095732
 6750.15158 0.6783976 0.0095114
 6756.89317 0.6744672 0.0096321
 6763.65950 0.6676931 0.0093668
 6770.42524 0.6644803 0.0093046
 6777.19098 0.6570386 0.0092570
 6783.96908 0.6527328 0.0093923
 6790.74718 0.6531640 0.0091478
 6797.53707 0.6546656 0.0090984
 6804.33932 0.6522267 0.0092419
 6811.14098 0.6470957 0.0090596
 6817.95559 0.6435039 0.0090420
 6824.78140 0.6405544 0.0090390
 6831.59601 0.6437732 0.0090869
 6838.43418 0.6433587 0.0090790
 6845.27235 0.6432890 0.0090781
 6852.11052 0.6414827 0.0092934
 6858.97284 0.6387537 0.0091215
 6865.82338 0.6407399 0.0091099
 6872.69747 0.6388293 0.0091092
 6879.57215 0.6440260 0.0091779
 6886.44683 0.6480104 0.0092116
 6893.33329 0.6466049 0.0092586
 6900.23153 0.6425217 0.0093939
 6907.13036 0.6415173 0.0094234
 6914.04096 0.6401768 0.0094489
 6920.95157 0.6497472 0.0092624
 6927.87395 0.6512126 0.0093981
 6934.79692 0.6470652 0.0093204
 6941.73167 0.6443352 0.0090207
 6948.67819 0.6480922 0.0090244
 6955.62531 0.6449316 0.0089115
 6962.58420 0.6434280 0.0086389
 6969.54310 0.6442106 0.0086852
 6976.51377 0.6442929 0.0086278
 6983.48503 0.6417392 0.0084117
 6990.47984 0.6369025 0.0083682
 6997.46288 0.6396387 0.0084419
 7004.47006 0.6339639 0.0082044
 7011.46488 0.6330532 0.0081495
 7018.48442 0.6299728 0.0082298
 7025.50338 0.6262081 0.0080469
 7032.52234 0.6228408 0.0080280
 7039.55367 0.6229455 0.0081565
 7046.59736 0.6200442 0.0080178
 7053.64047 0.6183795 0.0080327
 7060.69594 0.6124548 0.0082154
 7067.76319 0.6093289 0.0080932
 7074.83043 0.6080641 0.0081039
 7081.89768 0.6089237 0.0084379
 7088.98966 0.6033335 0.0086331
 7096.06869 0.6045623 0.0090433
 7103.17245 0.6127933 0.0061447
 7110.27621 0.6156445 0.0062248
 7117.37997 0.6208647 0.0063448
 7124.50729 0.6234951 0.0064235
 7131.62341 0.6219212 0.0064978
 7138.76309 0.6221349 0.0065790
 7145.90277 0.6227673 0.0066237
 7153.04246 0.6207541 0.0066613
 7160.19450 0.6188507 0.0066631
 7167.35833 0.6159377 0.0066217
 7174.52216 0.6114948 0.0064941
 7181.69776 0.6108567 0.0064834
 7188.88632 0.6056625 0.0063975
 7196.07429 0.6020898 0.0062287
 7203.26226 0.6025107 0.0061502
 7210.47438 0.5995546 0.0060414
 7217.68649 0.5960574 0.0058712
 7224.89861 0.5940424 0.0057778
 7232.12250 0.5917847 0.0056222
 7239.35876 0.5870660 0.0055291
 7246.59502 0.5835304 0.0054552
 7253.84364 0.5772015 0.0053344
 7261.10405 0.5725363 0.0052671
 7268.36445 0.5659695 0.0052260
 7275.63663 0.5454391 0.0072292
 7282.90940 0.5444813 0.0070958
 7290.19395 0.5482342 0.0071932
 7297.47791 0.5501999 0.0071864
 7304.77483 0.5531431 0.0070583
 7312.08352 0.5546443 0.0071938
 7319.39221 0.5537512 0.0070790
 7326.71268 0.5511807 0.0070765
 7334.04552 0.5470680 0.0072245
 7341.37836 0.5400020 0.0071081
 7348.72297 0.5415435 0.0071068
 7356.06759 0.5388131 0.0071339
 7363.42457 0.5360845 0.0071278
 7370.78155 0.5340897 0.0072662
 7378.16268 0.5346924 0.0071323
 7385.54321 0.5375710 0.0071182
 7392.92434 0.5395194 0.0071162
 7400.31724 0.5394721 0.0070931
 7407.72251 0.5437278 0.0070692
 7415.12778 0.5470384 0.0070337
 7422.54483 0.5447425 0.0070058
 7429.96188 0.5462588 0.0069890
 7437.39129 0.5453533 0.0069482
 7444.83249 0.5456452 0.0069040
 7452.27368 0.5372913 0.0068532
 7459.72724 0.5319384 0.0068297
 7467.19258 0.5240815 0.0068616
 7474.65791 0.5177557 0.0068631
 7482.13562 0.5127085 0.0067355
 7489.61273 0.5080994 0.0068435
 7497.10221 0.5041248 0.0068510
 7504.60406 0.5040156 0.0069303
 7512.10591 0.5047690 0.0069618
 7519.61953 0.5038860 0.0069182
 7527.14494 0.5059029 0.0071272
 7534.65856 0.5045785 0.0070711
 7542.19633 0.5064586 0.0072670
 7549.74647 0.5064804 0.0072872
 7557.29602 0.5050104 0.0071924
 7564.85793 0.5078752 0.0073451
 7572.41985 0.5071533 0.0071786
 7579.99354 0.5061874 0.0072380
 7587.56782 0.5038583 0.0070452
 7595.15388 0.4968390 0.0069921
 7602.75172 0.4898722 0.0068963
 7610.36192 0.4866326 0.0068765
 7617.97213 0.4798593 0.0069946
 7625.58233 0.4782666 0.0068361
 7633.21668 0.4751285 0.0069119
 7640.85102 0.4739301 0.0067701
 7648.48478 0.4763157 0.0067582
 7656.13150 0.4791535 0.0067323
 7663.78999 0.4819487 0.0067264
 7671.46026 0.4921965 0.0067108
 7679.13053 0.4953903 0.0066983
 7686.80080 0.5008641 0.0066733
 7694.49580 0.5046632 0.0066630
 7702.19022 0.5084177 0.0066635
 7709.89700 0.5108023 0.0066435
 7717.60319 0.5131935 0.0066241
 7725.32175 0.5143629 0.0065938
 7733.05268 0.5146582 0.0065851
 7740.77124 0.5117203 0.0065510
 7748.51453 0.5123670 0.0065236
 7756.26901 0.5115771 0.0064805
 7764.02408 0.5128272 0.0064517
 7771.79093 0.5121803 0.0063005
 7779.55778 0.5084662 0.0063673
 7787.34877 0.5069098 0.0062121
 7795.12798 0.5071812 0.0062817
 7802.91897 0.5031282 0.0061540
 7810.73411 0.5023576 0.0062431
 7818.53688 0.4998694 0.0061299
 7826.35202 0.4953567 0.0062257
 7834.17952 0.4919254 0.0062317
 7842.01880 0.4894795 0.0061447
 7849.85808 0.4862032 0.0062793
 7857.70914 0.4857088 0.0062308
 7865.57257 0.4817300 0.0063968
 7873.43599 0.4802474 0.0063808
 7881.31178 0.4788716 0.0065827
 7889.18699 0.4808199 0.0064881
 7897.07456 0.4824792 0.0066474
 7904.97449 0.4848326 0.0065952
 7912.88562 0.4892488 0.0068055
 7920.79733 0.4892067 0.0068128
 7928.72142 0.4875544 0.0070249
 7936.64491 0.4838460 0.0070257
 7944.58077 0.4791400 0.0072943
 7952.52840 0.4746030 0.0073557
 7960.48841 0.4716759 0.0076671
 7968.44841 0.4691505 0.0076414
 7976.40841 0.4620298 0.0078758
 7984.39197 0.4567852 0.0078027
 7992.37612 0.4560458 0.0076676
 8000.37204 0.4546697 0.0077660
 8008.36856 0.4582884 0.0076509
 8016.37626 0.4584153 0.0077747
 8024.39692 0.4596020 0.0076440
 8032.41699 0.4611149 0.0077866
 8040.44884 0.4612635 0.0076117
 8048.49364 0.4636908 0.0076640
 8056.53785 0.4685381 0.0074827
 8064.59385 0.4683786 0.0075835
 8072.66220 0.4672331 0.0073806
 8080.73115 0.4647171 0.0073918
 8088.81129 0.4644273 0.0071974
 8096.90379 0.4647466 0.0072089
 8104.99629 0.4587838 0.0070012
 8113.11294 0.4536738 0.0070341
 8121.21781 0.4493487 0.0068505
 8129.34624 0.4421271 0.0068932
 8137.47525 0.4409869 0.0067612
 8145.61604 0.4411359 0.0066760
 8153.75683 0.4394604 0.0066351
 8161.90940 0.4400865 0.0066291
 8170.07434 0.4368578 0.0067594
 8178.23928 0.4334827 0.0066711
 8186.42836 0.4305033 0.0068053
 8194.60566 0.4262088 0.0067279
 8202.80652 0.4271879 0.0068796
 8211.00797 0.4248393 0.0067903
 8219.22060 0.4208086 0.0068388
 8227.44619 0.4226671 0.0068694
 8235.67120 0.4223744 0.0069699
 8243.90857 0.4200673 0.0070012
 8252.14594 0.4117454 0.0070493
 8260.39508 0.4061739 0.0070947
 8268.65660 0.4049576 0.0072567
 8276.92989 0.4028366 0.0073392
 8285.20377 0.4000316 0.0073712
 8293.48884 0.4021593 0.0073290
 8301.78686 0.4009122 0.0075710
 8310.08430 0.4003899 0.0078564
 8318.40588 0.3954189 0.0080559
 8326.71568 0.3900814 0.0086000
 8335.04904 0.3866887 0.0089524
 8343.38299 0.3812235 0.0097017
 8351.71694 0.3817809 0.0099410
 8360.07444 0.3828900 0.0104597
 8368.43253 0.3836842 0.0103678
 8376.80240 0.3852463 0.0106335
 8385.18464 0.3855198 0.0103582
 8393.56628 0.3867173 0.0098036
 8401.96030 0.3860442 0.0094788
 8410.36668 0.3886347 0.0086959
 8418.77306 0.3929645 0.0084819
 8427.19122 0.3915500 0.0081972
 8435.62115 0.3931405 0.0081697
 8444.06346 0.3897614 0.0078930
 8452.50576 0.3889670 0.0078330
 8460.94806 0.3864293 0.0080058
 8469.41451 0.3872615 0.0079579
 8477.89273 0.3822599 0.0081056
 8486.35918 0.3824504 0.0079679
 8494.84977 0.3831678 0.0079577
 8503.35273 0.3819059 0.0079449
 8511.84332 0.3859603 0.0079370
 8520.35806 0.3818344 0.0078837
 8528.88457 0.3824597 0.0078610
 8537.41109 0.3757066 0.0079132
 8545.94997 0.3755509 0.0079602
 8554.50062 0.3797271 0.0080826
 8563.05187 0.3816437 0.0080769
 8571.61490 0.3797794 0.0080790
 8580.18970 0.3808720 0.0082091
 8588.76450 0.3738905 0.0083012
 8597.35167 0.3707241 0.0084502
 8605.95062 0.3654628 0.0084200
 8614.56193 0.3605772 0.0086137
 8623.17324 0.3572194 0.0087528
 8631.79634 0.3567255 0.0086884
 8640.43120 0.3515418 0.0089661
 8649.06666 0.3518358 0.0089020
 8657.72626 0.3517581 0.0090279
 8666.38528 0.3545385 0.0093033
 8675.04488 0.3555162 0.0091754
 8683.71626 0.3491350 0.0092500
 8692.41179 0.3467249 0.0093300
 8701.09553 0.3443278 0.0092156
 8709.80284 0.3534842 0.0093746
 8718.51073 0.3572995 0.0092219
 8727.23040 0.3628220 0.0092695
 8735.96243 0.3629136 0.0094270
 8744.69388 0.3700766 0.0092560
 8753.43769 0.3661302 0.0092664
 8762.19387 0.3659045 0.0092645
 8770.96124 0.3658328 0.0093672
 8779.72920 0.3576232 0.0093209
 8788.50952 0.3579947 0.0092538
 8797.30163 0.3621118 0.0091285
 8806.09373 0.3627101 0.0089813
 8814.89761 0.3606699 0.0089084
 8823.71385 0.3564586 0.0087312
 8832.54188 0.3501204 0.0085860
 8841.37049 0.3428425 0.0084906
 8850.21088 0.3332884 0.0083895
 8859.06305 0.3320678 0.0081796
 8867.92759 0.3296044 0.0082277
 8876.79153 0.3296275 0.0080959
 8885.66844 0.3303187 0.0079225
 8894.55712 0.3294784 0.0080014
 8903.45758 0.3232198 0.0079035
 8912.35803 0.3111644 0.0076603
 8921.27086 0.2969981 0.0076514
 8930.18309 0.2785169 0.0073942
 8939.12006 0.2633246 0.0070799
 8948.05703 0.2486006 0.0070298
 8957.00578 0.2336872 0.0067745
 8965.96689 0.2212124 0.0063894
 8974.92741 0.2088866 0.0062801
 8983.90031 0.2026653 0.0060276
 8992.88556 0.2037338 0.0058719
 9001.88260 0.2028548 0.0059532
 9010.89200 0.2022517 0.0061469
 9019.90081 0.2065711 0.0063406
 9028.92199 0.2189261 0.0067309
 9037.94317 0.2305034 0.0070990
 9046.98850 0.2435068 0.0074013
 9056.03382 0.2638119 0.0079144
 9065.09151 0.2822744 0.0084796
 9074.16098 0.2898883 0.0087507
 9083.23045 0.2983674 0.0092504
 9092.31170 0.3063261 0.0095779
 9101.40531 0.3094084 0.0096826
 9110.51070 0.3074738 0.0099769
 9119.61668 0.3045967 0.0103575
 9128.73444 0.3003947 0.0103566
 9137.86397 0.2970286 0.0106118
 9147.00588 0.2993732 0.0105978
 9156.14778 0.3090557 0.0104693
 9165.31382 0.3135553 0.0106296
 9174.47928 0.3153408 0.0107968
 9183.65770 0.3104067 0.0109177
 9192.83552 0.3033831 0.0108193
 9202.02571 0.3008940 0.0110482
 9211.22768 0.2956760 0.0110746
 9220.44201 0.2965231 0.0108651
 9229.66813 0.2941639 0.0108465
 9238.89424 0.2978693 0.0110569
 9248.13272 0.2954909 0.0110200
 9257.38298 0.2867121 0.0110309
 9266.63323 0.2878222 0.0108489
 9275.90764 0.2836601 0.0109273
 9285.18204 0.2787535 0.0107321
 9294.46881 0.2795164 0.0107029
 9303.76735 0.2790456 0.0105924
 9313.06590 0.2831344 0.0106686
 9322.38859 0.2838349 0.0103902
 9331.69950 0.2871773 0.0103036
 9341.03397 0.2838403 0.0102862
 9350.38081 0.2832584 0.0102725
 9359.72764 0.2786086 0.0101451
 9369.08684 0.2755449 0.0101859
 9378.45782 0.2709851 0.0102896
 9387.84058 0.2686496 0.0103493
 9397.22334 0.2694576 0.0102899
 9406.61846 0.2617990 0.0103585
 9416.02595 0.2621640 0.0105912
 9425.44522 0.2572658 0.0106479
 9434.86449 0.2503552 0.0109497
 9444.30731 0.2490474 0.0112446
 9453.75073 0.2451916 0.0117073
 9463.20650 0.2418377 0.0119821
 9472.67347 0.2437564 0.0126027
 9482.14103 0.2498124 0.0131136
 9491.62037 0.2451939 0.0134679
 9501.12443 0.2405873 0.0133721
 9510.61555 0.2381606 0.0134094
 9520.13139 0.2388823 0.0135842
 9529.64724 0.2419727 0.0134577
 9539.18723 0.2387564 0.0130201
 9548.72663 0.2399777 0.0127242
 9558.26662 0.2434793 0.0125216
 9567.83076 0.2416568 0.0126027
 9577.39430 0.2414753 0.0124684
 9586.97021 0.2410558 0.0126453
 9596.55849 0.2514135 0.0130738
 9606.15855 0.2530254 0.0134007
 9615.75861 0.2560726 0.0136993
 9625.38281 0.2502621 0.0135694
 9635.00701 0.2592477 0.0138062
 9644.64358 0.2614870 0.0140392
 9654.29193 0.2584481 0.0142541
 9663.94027 0.2557863 0.0142862
 9673.61276 0.2477433 0.0145577
 9683.28525 0.2409734 0.0146030
 9692.95774 0.2404491 0.0146678
 9702.65379 0.2365299 0.0149508
 9712.36279 0.2331933 0.0148375
 9722.07120 0.2234749 0.0152102
 9731.80435 0.2261003 0.0153061
 9741.52454 0.2242178 0.0152915
 9751.26946 0.2183398 0.0152286
 9761.02675 0.2198368 0.0148944
 9770.78345 0.2245872 0.0149833
 9780.55252 0.2236160 0.0153078
 9790.33337 0.2224089 0.0156810
 9800.12658 0.2306290 0.0156108
 9809.93157 0.2295483 0.0154133
 9819.73656 0.2394536 0.0157575
 9829.55392 0.2421993 0.0156895
 9839.39542 0.2433664 0.0159010
 9849.22455 0.2482160 0.0163988
 9859.07783 0.2422070 0.0162117
 9868.94348 0.2419710 0.0162299
 9878.80853 0.2421168 0.0162519
 9888.68655 0.2392843 0.0162160
 9898.57634 0.2381863 0.0159268
 9908.47790 0.2362820 0.0157774
 9918.39125 0.2403074 0.0157754
 9928.30460 0.2379892 0.0157882
 9938.23090 0.2367266 0.0158199
 9948.16780 0.2396169 0.0157817
 9958.11766 0.2428352 0.0160394
 9968.08047 0.2425481 0.0163736
 9978.04210 0.2373188 0.0164236
 9988.02847 0.2367733 0.0167038
 9998.01366 0.2288689 0.0170706
 10008.01181 0.2267483 0.0173267
 10018.02173 0.2278034 0.0175127
 10028.04461 0.2205466 0.0177363
 10038.06631 0.2143817 0.0178932
 10048.10097 0.2140604 0.0177667
 10058.15918 0.2139857 0.0180199
 10068.20561 0.2204167 0.0182094
 10078.27678 0.2279997 0.0183476
 10088.35855 0.2326052 0.0185357
 10098.45327 0.2385708 0.0189223
 10108.54799 0.2491325 0.0191306
 10118.65449 0.2485652 0.0190140
 10128.77277 0.2548476 0.0193095
 10138.90401 0.2218209 0.0142041
 10149.04702 0.2163102 0.0145892
 10159.19003 0.2123652 0.0150275
 10169.35660 0.2103603 0.0154544
 10179.52317 0.2085050 0.0158830
 10189.70269 0.2045799 0.0163624
 10199.89399 0.2027107 0.0165883
 10210.09707 0.1993701 0.0171277
 10220.31193 0.1956830 0.0177371
 10230.52678 0.1903546 0.0183071
 10240.75460 0.1914389 0.0187825
 10250.99418 0.1834563 0.0193277
 10261.24555 0.1721198 0.0197932
 10271.50870 0.1622099 0.0202490
 10281.78362 0.1540120 0.0203603
 10292.07150 0.1490039 0.0207389
 10302.35938 0.1390984 0.0210699
 10312.65903 0.1320871 0.0212619
 10322.97047 0.1335375 0.0213427
 10333.29368 0.1299939 0.0213855
 10343.62985 0.1360440 0.0213441
 10353.97779 0.1395139 0.0212510
 10364.32574 0.1437224 0.0211206
 10374.69724 0.1460599 0.0208352
 10385.06992 0.1458212 0.0207149
 10395.45320 0.1467895 0.0206597
 10405.84943 0.1521392 0.0206331
 10416.25744 0.1568804 0.0207235
 10426.67841 0.1608048 0.0208600
 10437.09820 0.1513401 0.0208310
 10447.54272 0.1468606 0.0207859
 10457.98724 0.1492192 0.0208121
 10468.44355 0.1417109 0.0207700
 10478.91162 0.1418740 0.0205638
 10489.39266 0.1413841 0.0205007
 10499.88429 0.1470061 0.0204128
 10510.37710 0.1471293 0.0202333
 10520.89465 0.1482211 0.0201444
 10531.42279 0.1503281 0.0202129
 10541.93916 0.1485370 0.0203610
 10552.49204 0.1513028 0.0205721
 10563.04492 0.1496206 0.0206752
 10573.61075 0.1399946 0.0207372
 10584.18719 0.1403272 0.0207161
 10594.76480 0.1411410 0.0208157
 10605.36479 0.1424545 0.0209823
 10615.96595 0.1380015 0.0211861
 10626.58008 0.1407225 0.0211492
 10637.20480 0.1475332 0.0213466
 10647.85426 0.1443121 0.0214017
 10658.49193 0.1361446 0.0214963
 10669.15317 0.1306958 0.0216302
 10679.82618 0.1283082 0.0217586
 10690.51215 0.1217374 0.0220072
 10701.19811 0.1297401 0.0223272
 10711.89468 0.1376638 0.0226439
 10722.60538 0.1390253 0.0228991
 10733.33846 0.1496528 0.0231522
 10744.05976 0.1456017 0.0234738
 10754.80579 0.1461701 0.0236597
 10765.56360 0.1406397 0.0238897
 10776.33437 0.1320457 0.0241864
 10787.11574 0.1218125 0.0245294
 10797.89828 0.1215738 0.0249211
 10808.69261 0.1209187 0.0253811
 10819.51048 0.1308357 0.0258312
 10830.32836 0.1258778 0.0263526
 10841.15920 0.1153674 0.0268378
 10852.00063 0.1108605 0.0272844
 10862.85502 0.1026969 0.0277313
 10873.70941 0.1003950 0.0281590
 10884.58853 0.0981534 0.0286404
 10895.47943 0.1153240 0.0290907
 10906.36915 0.1330771 0.0296332
 10917.27183 0.1508174 0.0301390
 10928.19924 0.1550822 0.0306783
 10939.12548 0.1585121 0.0312210
 10950.06466 0.1619136 0.0317733
 10961.01563 0.1547435 0.0323338
 10971.97838 0.1484439 0.0326445
 10982.95290 0.1418106 0.0330726
 10993.92860 0.1329585 0.0336084
 11004.92785 0.1442684 0.0342051
 11015.92711 0.1473440 0.0348921
 11026.94992 0.1442077 0.0356533
 11037.97273 0.1480675 0.0360448
 11049.00850 0.1526639 0.0363788
 11060.06782 0.1497830 0.0366089
 11071.12714 0.1450920 0.0368835
 11082.19824 0.1382144 0.0373613
 11093.28230 0.1336729 0.0381443
 11104.37813 0.1367634 0.0392105
 11115.47397 0.1517725 0.0402535
 11126.59335 0.1770040 0.0417128
 11137.71274 0.1741337 0.0432567
 11148.85687 0.1446800 0.0445849
 11160.00099 0.1296319 0.0460895
 11171.16867 0.1068895 0.0480271
 11182.33634 0.0960454 0.0506224
 11193.52875 0.0880052 0.0541745
 11204.72117 0.0884267 0.0590105
 11215.92418 0.1022065 0.0653998
 11227.14132 0.1026020 0.0731136
 11238.36907 0.0938086 0.0834586
 11249.59799 0.0722561 0.0970437
