# SOURCE  = 'Quimby et al. 2018' /                                                
# OBJECT  = 'PTF09cwl'           /                                                
# Z       =             0.350200 / wavelengths in OBSERVER FRAME                 
# NORM    =          7.22570E-17 / fluxes divided by norm                         
# CLIPPED =                    1 / galaxy emission lines removed                  
# SMOOTHED=                    1 / spectrum has been smoothed                     
# COLUMN01= 'Wavelength (Angstrom)' /                                             
# COLUMN02= 'Flux Density (erg/s/cm2/A)' /                                        
# COLUMN03= 'Flux Density Uncertainty (erg/s/cm2/A)' /                            
# END                                                                             
# 
# 
# 
# 
# 
# 
# 
# 
# 
# 
# Converted to Observer Frame using z=0.3502
 4263.63489 2.3204067 0.1196182
 4267.88272 2.3370211 0.1151194
 4272.16660 2.3533244 0.1110892
 4276.43267 2.3908675 0.1073467
 4280.71699 2.3661835 0.1038193
 4284.98262 2.3711982 0.1005409
 4289.26694 2.3737872 0.0974417
 4293.56907 2.3424525 0.0935275
 4297.85339 2.3159893 0.0908294
 4302.15552 2.2823730 0.0882335
 4306.45809 2.2899234 0.0857713
 4310.76066 2.2514954 0.0834289
 4315.08103 2.2802160 0.0811930
 4319.38360 2.2830417 0.0790832
 4323.70397 2.2680984 0.0771715
 4328.04304 2.2620261 0.0752755
 4332.36341 2.2463770 0.0727968
 4336.70248 2.2259436 0.0711211
 4341.02285 2.2354009 0.0694294
 4345.38017 2.2247207 0.0678178
 4349.71879 2.2380927 0.0663283
 4354.07611 2.2431953 0.0648620
 4358.43298 2.2448671 0.0634748
 4362.78985 2.2626083 0.0622427
 4367.14716 2.2623580 0.0604899
 4371.52228 2.2467437 0.0594047
 4375.87959 2.2518480 0.0582686
 4380.25471 2.2296307 0.0571494
 4384.64808 2.2175775 0.0561022
 4389.02364 2.2041728 0.0549672
 4393.41701 2.1703815 0.0538576
 4397.81082 2.1376870 0.0524497
 4402.20418 2.1035373 0.0514173
 4406.61580 2.0760057 0.0504253
 4411.00961 2.0624280 0.0495364
 4415.42123 2.0440178 0.0485624
 4419.85109 2.0106046 0.0476809
 4424.26315 1.9818681 0.0467465
 4428.69301 1.9576077 0.0454792
 4433.12287 1.9196585 0.0447073
 4437.55274 1.8979666 0.0438897
 4441.98304 1.8867005 0.0431856
 4446.43115 1.8640085 0.0424271
 4450.87926 1.8517241 0.0416914
 4455.32738 1.8458186 0.0407215
 4459.77593 1.8497162 0.0400249
 4464.24229 1.8439091 0.0394282
 4468.70865 1.8463312 0.0387241
 4473.17501 1.8661664 0.0380359
 4477.64137 1.9067951 0.0374617
 4482.12642 1.9587387 0.0365209
 4486.61103 1.9889864 0.0359378
 4491.09563 2.0222907 0.0352664
 4495.58024 2.0765307 0.0345954
 4500.08310 2.1226599 0.0340235
 4504.58595 2.1741858 0.0334327
 4509.08881 2.2061472 0.0327208
 4513.59211 2.2432642 0.0322234
 4518.11321 2.2698970 0.0318492
 4522.63432 2.3072040 0.0314155
 4527.15542 2.3335183 0.0310025
 4531.67652 2.3773656 0.0304808
 4536.21588 2.3971527 0.0301225
 4540.75523 2.4297819 0.0298660
 4545.29458 2.4485757 0.0295211
 4549.83393 2.4741728 0.0292598
 4554.39153 2.4765694 0.0286881
 4558.94913 2.4943857 0.0284041
 4563.50673 2.5121746 0.0280297
 4568.06433 2.5162327 0.0276624
 4572.64018 2.5266359 0.0273702
 4577.19778 2.5154259 0.0268111
 4581.77363 2.5006499 0.0265163
 4586.36773 2.5067017 0.0261611
 4590.94357 2.4905100 0.0259247
 4595.53767 2.4809306 0.0256296
 4600.13177 2.4611692 0.0252498
 4604.74411 2.4654112 0.0249714
 4609.33776 2.4580956 0.0248039
 4613.95011 2.4448462 0.0245572
 4618.56245 2.4188499 0.0242521
 4623.19305 2.4044263 0.0240152
 4627.80539 2.3913765 0.0238737
 4632.43598 2.3677292 0.0236714
 4637.06658 2.3410389 0.0234173
 4641.69672 2.3224256 0.0232021
 4646.34556 2.2863040 0.0230736
 4650.99441 2.2660911 0.0228398
 4655.64325 2.2356904 0.0227037
 4660.31034 2.2054951 0.0223343
 4664.95873 2.1658187 0.0222209
 4669.62582 2.1413555 0.0220097
 4674.29291 2.1157174 0.0219032
 4678.97825 2.0860035 0.0215567
 4683.64489 2.0555398 0.0214452
 4688.33023 2.0260103 0.0212493
 4693.01557 1.9946150 0.0211366
 4697.71915 1.9592962 0.0207800
 4702.42229 1.9257689 0.0206542
 4707.10763 1.9071820 0.0204549
 4711.82947 1.8850925 0.0201940
 4716.53261 1.8569075 0.0200129
 4721.25444 1.8394750 0.0199265
 4725.97627 1.8244174 0.0197467
 4730.69766 1.8142916 0.0194813
 4735.43774 1.8047329 0.0192808
 4740.15913 1.7925849 0.0191759
 4744.89922 1.7935646 0.0190749
 4749.65755 1.7875715 0.0188038
 4754.39718 1.7797939 0.0187805
 4759.15551 1.7904526 0.0186897
 4763.91340 1.7988302 0.0185982
 4768.68998 1.7967100 0.0185452
 4773.44786 1.8028661 0.0185944
 4778.22444 1.7919950 0.0185672
 4783.00057 1.7878699 0.0185262
 4787.77715 1.7820884 0.0185987
 4792.57153 1.7749316 0.0185609
 4797.36636 1.7620139 0.0184891
 4802.16074 1.7417989 0.0184119
 4806.97382 1.7287093 0.0184060
 4811.76820 1.7050289 0.0181455
 4816.58127 1.6908768 0.0181071
 4821.39390 1.6819959 0.0180762
 4826.22523 1.6776078 0.0179718
 4831.05611 1.6694630 0.0178456
 4835.88698 1.6618837 0.0177681
 4840.71831 1.6637115 0.0177993
 4845.56743 1.6695917 0.0177035
 4850.39876 1.6685473 0.0176349
 4855.24788 1.6861724 0.0176611
 4860.11526 1.6970147 0.0174671
 4864.96483 1.7097676 0.0174733
 4869.83220 1.7392055 0.0174734
 4874.69958 1.7630321 0.0172678
 4879.58565 1.7749754 0.0172906
 4884.45302 1.7892559 0.0173113
 4889.33864 1.8099397 0.0171180
 4894.24251 1.8335961 0.0171370
 4899.12858 1.8555996 0.0170808
 4904.03245 1.8880382 0.0170279
 4908.93632 1.9207344 0.0170868
 4913.84019 1.9539005 0.0170482
 4918.76276 1.9937497 0.0169843
 4923.68488 2.0417621 0.0170368
 4928.60700 2.0976913 0.0169969
 4933.52912 2.1523082 0.0169585
 4938.46948 2.2165377 0.0170150
 4943.39205 2.3010507 0.0169683
 4948.35066 2.3787975 0.0168872
 4953.29103 2.4510460 0.0169169
 4958.24965 2.5190976 0.0172673
 4963.20826 2.5950327 0.0170501
 4968.16688 2.6594486 0.0168103
 4973.14374 2.7182007 0.0165985
 4978.10236 2.7793767 0.0167715
 4983.07922 2.8192680 0.0169977
 4988.07433 2.8652997 0.0170689
 4993.05164 2.9163413 0.0173008
 4998.04675 2.9546969 0.0174021
 5003.04186 2.9993787 0.0174534
 5008.05522 3.0359876 0.0175518
 5013.06858 3.0595438 0.0173472
 5018.08194 3.0872040 0.0171197
 5023.09530 3.1277204 0.0169740
 5028.10866 3.1692953 0.0166060
 5033.14027 3.1983275 0.0163625
 5038.17188 3.2144938 0.0159645
 5043.22129 3.2426448 0.0157902
 5048.25290 3.2392559 0.0155251
 5053.30276 3.2481372 0.0156399
 5058.37086 3.2411318 0.0158300
 5063.42072 3.2464359 0.0153733
 5068.48882 3.2387693 0.0151340
 5073.55693 3.2266877 0.0149124
 5078.62503 3.2077453 0.0149218
 5083.71139 3.2060711 0.0147381
 5088.79729 3.1982126 0.0147675
 5093.88365 3.1909337 0.0149661
 5098.97000 3.1706686 0.0147662
 5104.07460 3.1510844 0.0145104
 5109.17920 3.1365919 0.0144196
 5114.28380 3.1277423 0.0146093
 5119.40621 3.1163101 0.0146558
 5124.52906 3.0962470 0.0148164
 5129.65191 3.0599706 0.0149538
 5134.77475 3.0259366 0.0150292
 5139.91541 3.0070083 0.0149465
 5145.05650 2.9711497 0.0149788
 5150.19760 2.9523475 0.0147853
 5155.33825 2.9394045 0.0144150
 5160.49760 2.9272425 0.0142527
 5165.65695 2.9178617 0.0138603
 5170.83410 2.9154317 0.0136914
 5175.99344 2.9262855 0.0134350
 5181.17103 2.9379966 0.0131961
 5186.36643 2.9470754 0.0132867
 5191.54403 2.9549239 0.0134088
 5196.73987 2.9601953 0.0131992
 5201.93526 2.9795909 0.0130552
 5207.13111 3.0010135 0.0129080
 5212.34475 3.0171752 0.0128335
 5217.55884 3.0255175 0.0127852
 5222.77293 3.0310717 0.0127278
 5228.00483 3.0362382 0.0126687
 5233.21892 3.0543110 0.0126255
 5238.45081 3.0578353 0.0125742
 5243.70140 3.0655849 0.0125303
 5248.93329 3.0638652 0.0125040
 5254.18388 3.0567086 0.0124790
 5259.45227 3.0602298 0.0123712
 5264.70285 3.0574372 0.0123620
 5269.97124 3.0535882 0.0124269
 5275.23963 3.0409362 0.0122874
 5280.50847 3.0180464 0.0122075
 5285.79511 3.0027907 0.0121951
 5291.08219 3.0019011 0.0119821
 5296.36883 2.9813542 0.0118495
 5301.67371 2.9732635 0.0118167
 5306.97905 2.9670646 0.0116427
 5312.28393 2.9567733 0.0115725
 5317.58882 2.9479966 0.0115251
 5322.91240 2.9368720 0.0114897
 5328.23553 2.9255288 0.0114387
 5333.55867 2.9072077 0.0113797
 5338.90049 2.8904943 0.0112388
 5344.24188 2.8734972 0.0112500
 5349.58326 2.8461742 0.0111889
 5354.92509 2.8258736 0.0110671
 5360.28472 2.8185141 0.0110957
 5365.64435 2.7941813 0.0110909
 5371.00398 2.7692292 0.0110339
 5376.38186 2.7398465 0.0111356
 5381.76018 2.7089722 0.0114939
 5387.13806 2.6833456 0.0119383
 5392.53419 2.6612613 0.0125021
 5397.91207 2.6166105 0.0113364
 5403.30820 2.5948071 0.0114199
 5408.72302 2.5752592 0.0117473
 5414.13739 2.5434461 0.0121646
 5419.55177 2.5169621 0.0126373
 5424.96614 2.4927804 0.0130739
 5430.39877 2.4625964 0.0134281
 5435.81314 2.4394412 0.0136262
 5441.26401 2.4299242 0.0134877
 5446.69664 2.4405031 0.0130086
 5452.14751 2.4529884 0.0125786
 5457.59838 2.4775262 0.0121971
 5463.04925 2.5019536 0.0117257
 5468.51837 2.5280354 0.0112704
 5473.98749 2.5440235 0.0110129
 5479.45661 2.5605288 0.0110810
 5484.94398 2.5853591 0.0119423
 5490.43135 2.5969298 0.0113991
 5495.91872 2.5924382 0.0109825
 5501.40609 2.5999372 0.0106416
 5506.91170 2.6019075 0.0106019
 5512.41732 2.5939767 0.0105676
 5517.94119 2.5861208 0.0105280
 5523.44680 2.5841734 0.0104873
 5528.97067 2.5739486 0.0104553
 5534.51278 2.5725298 0.0104364
 5540.03620 2.5797913 0.0103491
 5545.57831 2.5784767 0.0104089
 5551.12043 2.5960610 0.0103979
 5556.68079 2.6044734 0.0103988
 5562.24115 2.6111555 0.0104019
 5567.80106 2.6267331 0.0103298
 5573.36142 2.6374910 0.0103141
 5578.94003 2.6372447 0.0102937
 5584.51864 2.6413860 0.0103252
 5590.09725 2.6497278 0.0102815
 5595.69367 2.6444671 0.0101924
 5601.29052 2.6367571 0.0101705
 5606.88738 2.6457314 0.0101441
 5612.50204 2.6411328 0.0101145
 5618.11715 2.6372986 0.0100857
 5623.73225 2.6404567 0.0099964
 5629.34691 2.6423399 0.0099597
 5634.98027 2.6421928 0.0099871
 5640.61362 2.6375034 0.0099399
 5646.26478 2.6349721 0.0098805
 5651.89813 2.6331470 0.0098212
 5657.54973 2.6331429 0.0097183
 5663.21914 2.6310525 0.0096789
 5668.88899 2.6220038 0.0096419
 5674.54015 2.6103394 0.0096147
 5680.22825 2.5973365 0.0095810
 5685.89765 2.5865843 0.0095468
 5691.58575 2.5716512 0.0095072
 5697.27340 2.5501354 0.0094721
 5702.97975 2.5332820 0.0094372
 5708.68565 2.5245016 0.0093969
 5714.39200 2.5127456 0.0093576
 5720.09790 2.4948013 0.0093262
 5725.82249 2.4783871 0.0092991
 5731.54664 2.4683044 0.0092744
 5737.28949 2.4613194 0.0092506
 5743.01364 2.4474812 0.0091704
 5748.75604 2.4349322 0.0091390
 5754.51713 2.4271038 0.0091065
 5760.25953 2.4247978 0.0090697
 5766.02062 2.4152946 0.0090439
 5771.79951 2.4131119 0.0090176
 5777.56016 2.3963351 0.0089764
 5783.33950 2.3838997 0.0089319
 5789.13664 2.3787031 0.0088935
 5794.91553 2.3722808 0.0088633
 5800.71268 2.3583283 0.0088423
 5806.51026 2.3485882 0.0087771
 5812.32566 2.3424225 0.0087821
 5818.14105 2.3285229 0.0087878
 5823.95644 2.3200843 0.0088011
 5829.77227 2.3124783 0.0088238
 5835.60591 2.3020487 0.0088412
 5841.43955 2.2947249 0.0088499
 5847.29144 2.2887647 0.0088538
 5853.12508 2.2806284 0.0088577
 5858.97741 2.2736406 0.0088459
 5864.84755 2.2581241 0.0088332
 5870.69943 2.2534878 0.0088284
 5876.58782 2.2421472 0.0088317
 5882.45795 2.2401831 0.0088372
 5888.34634 2.2254174 0.0088289
 5894.23472 2.2179353 0.0088165
 5900.12310 2.2162316 0.0088117
 5906.02974 2.2100658 0.0088021
 5911.93637 2.1960781 0.0087893
 5917.84300 2.1955011 0.0087804
 5923.76788 2.1856754 0.0087837
 5929.69276 2.1830306 0.0087904
 5935.61764 2.1914883 0.0088063
 5941.54252 2.1930246 0.0088306
 5947.48565 2.1966562 0.0088016
 5953.44702 2.2041092 0.0088182
 5959.39015 2.2113600 0.0088296
 5965.35153 2.2253733 0.0088413
 5971.31291 2.2263410 0.0088456
 5977.29253 2.2340090 0.0088406
 5983.27216 2.2554357 0.0088328
 5989.25178 2.2629216 0.0088174
 5995.24965 2.2723505 0.0087962
 6001.22883 2.2829938 0.0087736
 6007.24495 2.2947223 0.0087532
 6013.24283 2.3006747 0.0086821
 6019.25895 2.3034561 0.0086672
 6025.27507 2.3063962 0.0086557
 6031.30899 2.3115730 0.0086447
 6037.34336 2.3107457 0.0086347
 6043.37773 2.3071196 0.0086302
 6049.41210 2.3068364 0.0086299
 6055.46427 2.2968588 0.0086306
 6061.51689 2.2902355 0.0085815
 6067.58776 2.2835002 0.0086367
 6073.65862 2.2756250 0.0086351
 6079.72904 2.2743530 0.0086343
 6085.79991 2.2633243 0.0086382
 6091.88902 2.2560258 0.0086401
 6097.97769 2.2495961 0.0085918
 6104.08505 2.2332177 0.0085922
 6110.19197 2.2320580 0.0085859
 6116.29933 2.2268605 0.0085840
 6122.40670 2.2252121 0.0085719
 6128.53186 2.2225056 0.0085625
 6134.65747 2.2284400 0.0085491
 6140.80089 2.2296531 0.0085382
 6146.94474 2.2308035 0.0085254
 6153.08816 2.2324135 0.0085124
 6159.25026 2.2340958 0.0085025
 6165.41193 2.2338874 0.0084404
 6171.57403 2.2321584 0.0084273
 6177.73569 2.2367451 0.0084165
 6183.91605 2.2388659 0.0084581
 6190.09596 2.2374158 0.0084469
 6196.29412 2.2404172 0.0083809
 6202.49272 2.2308357 0.0083687
 6208.69088 2.2290118 0.0083571
 6214.90773 2.2301357 0.0083480
 6221.10589 2.2279787 0.0083412
 6227.34054 2.2328086 0.0083339
 6233.55739 2.2304406 0.0083280
 6239.79205 2.2286508 0.0083138
 6246.04495 2.2290020 0.0082534
 6252.28005 2.2272923 0.0082450
 6258.53295 2.2286644 0.0082795
 6264.78586 2.2143450 0.0082666
 6271.05701 2.2033401 0.0082023
 6277.32860 2.1882596 0.0081887
 6283.61800 2.1671822 0.0081729
 6289.88915 2.1463335 0.0081519
 6296.17855 2.1271186 0.0081377
 6302.48620 2.1043801 0.0081269
 6308.77604 2.0853779 0.0081182
 6315.08369 2.0683329 0.0080583
 6321.40959 2.0494006 0.0080961
 6327.73548 2.0416896 0.0080869
 6334.06138 2.0330915 0.0080381
 6340.38727 2.0349383 0.0080393
 6346.73142 2.0460753 0.0080932
 6353.07556 2.0570676 0.0080540
 6359.43840 2.0709240 0.0080544
 6365.80079 2.0885930 0.0080577
 6372.16318 2.1014297 0.0080690
 6378.52557 2.1180201 0.0080694
 6384.90621 2.1252966 0.0080736
 6391.28685 2.1388354 0.0080284
 6397.68574 2.1458266 0.0080720
 6404.08463 2.1487334 0.0080665
 6410.48352 2.1554399 0.0080134
 6416.90021 2.1576831 0.0080528
 6423.31735 2.1559272 0.0080498
 6429.73448 2.1520228 0.0080054
 6436.16987 2.1556740 0.0080049
 6442.60525 2.1582153 0.0080075
 6449.05889 2.1563001 0.0080082
 6455.49427 2.1543674 0.0080100
 6461.94790 2.1486056 0.0080118
 6468.41934 2.1410475 0.0080136
 6474.89122 2.1267822 0.0079644
 6481.36310 2.1130531 0.0080031
 6487.83498 2.0899775 0.0079986
 6494.32511 2.0620780 0.0079422
 6500.81480 2.0384760 0.0079799
 6507.32317 2.0129561 0.0079282
 6513.83155 1.9851809 0.0079186
 6520.35773 1.9544384 0.0079076
 6526.86611 1.9239703 0.0078950
 6533.39274 1.8966413 0.0078807
 6539.93717 1.8725803 0.0078568
 6546.46379 1.8515102 0.0078400
 6553.00866 1.8328606 0.0077819
 6559.57134 1.8247201 0.0078105
 6566.13446 1.8157425 0.0077611
 6572.69759 1.8108041 0.0078054
 6579.27851 1.8122321 0.0077623
 6585.84163 1.8060004 0.0077750
 6592.44081 1.8076903 0.0077922
 6599.02218 1.8097036 0.0078000
 6605.62135 1.8109097 0.0078057
 6612.23922 1.8097576 0.0078040
 6618.83839 1.8073083 0.0077508
 6625.45626 1.8073561 0.0077798
 6632.09193 1.8047372 0.0077153
 6638.72804 1.7981517 0.0077431
 6645.36371 1.7996136 0.0076779
 6652.01808 1.7927731 0.0077088
 6658.65375 1.7909718 0.0076514
 6665.32591 1.7908405 0.0076409
 6671.98028 1.7909925 0.0076446
 6678.65244 1.7865447 0.0076486
 6685.34286 1.7869604 0.0076523
 6692.01547 1.7903821 0.0076508
 6698.72413 1.7957871 0.0076519
 6705.41455 1.7965771 0.0076064
 6712.12365 1.7982122 0.0076493
 6718.83232 1.8041596 0.0076071
 6725.55923 1.8118316 0.0076453
 6732.26789 1.8147303 0.0076026
 6739.01349 1.8226620 0.0076393
 6745.74040 1.8257698 0.0075977
 6752.50381 1.8303578 0.0075973
 6759.24897 1.8283052 0.0076002
 6766.01238 1.8265885 0.0076054
 6772.77623 1.8328567 0.0076044
 6779.53964 1.8332469 0.0076050
 6786.32129 1.8329046 0.0075622
 6793.12120 1.8324867 0.0075982
 6799.90285 1.8221718 0.0075583
 6806.70276 1.8078181 0.0075604
 6813.52091 1.8004572 0.0075536
 6820.32081 1.7900980 0.0075463
 6827.15721 1.7762502 0.0075010
 6833.97536 1.7658715 0.0075360
 6840.81176 1.7506399 0.0075360
 6847.64816 1.7386514 0.0075319
 6854.50281 1.7311938 0.0075295
 6861.35746 1.7163185 0.0074895
 6868.21211 1.7041972 0.0074867
 6875.08501 1.6918516 0.0074839
 6881.95790 1.6788960 0.0074834
 6888.84905 1.6686209 0.0074848
 6895.72194 1.6565320 0.0074849
 6902.63134 1.6502796 0.0074843
 6909.52248 1.6407782 0.0074407
 6916.43143 1.6309638 0.0074798
 6923.35907 1.6185279 0.0074858
 6930.28671 1.6095322 0.0074486
 6937.21435 1.6061573 0.0074546
 6944.14199 1.6038224 0.0074941
 6951.08744 1.5914946 0.0074704
 6958.05158 1.5854481 0.0074581
 6964.99747 1.5787520 0.0074050
 6971.96160 1.5696961 0.0074494
 6978.94354 1.5690062 0.0074698
 6985.92593 1.5713693 0.0074565
 6992.90832 1.5692388 0.0074915
 6999.89026 1.5771987 0.0075677
 7006.89089 1.5855114 0.0075628
 7013.90977 1.5944225 0.0075922
 7020.92821 1.6054960 0.0076171
 7027.94709 1.6160914 0.0076348
 7034.96553 1.6272115 0.0076344
 7042.00266 1.6424637 0.0076211
 7049.03934 1.6564738 0.0076124
 7056.09472 1.6661931 0.0075704
 7063.14966 1.6842476 0.0075620
 7070.22328 1.6947455 0.0076042
 7077.27822 1.6990129 0.0076229
 7084.37009 1.7065506 0.0076107
 7091.44327 1.7121682 0.0076149
 7098.53515 1.7108324 0.0076413
 7105.64483 1.7045199 0.0075873
 7112.75495 1.6970569 0.0076335
 7119.86463 1.6830848 0.0076492
 7126.97431 1.6641546 0.0076716
 7134.10268 1.6418809 0.0077065
 7141.24885 1.6201084 0.0076986
 7148.37678 1.5881746 0.0077283
 7155.54165 1.5618545 0.0077559
 7162.68782 1.5381628 0.0077769
 7169.85224 1.5164018 0.0077407
 7177.01711 1.4936982 0.0077749
 7184.19978 1.4693444 0.0077755
 7191.38245 1.4464869 0.0077725
 7198.58337 1.4349753 0.0077589
 7205.76649 1.4212127 0.0077474
 7212.98566 1.4095637 0.0077047
 7220.18657 1.4060746 0.0076992
 7227.40574 1.4049116 0.0077063
 7234.64316 1.4088868 0.0077314
 7241.88057 1.4070859 0.0077212
 7249.11799 1.4012877 0.0077309
 7256.37410 1.4061067 0.0076973
 7263.62976 1.4150593 0.0077026
 7270.88543 1.4226286 0.0077137
 7278.15934 1.4358580 0.0077220
 7285.43325 1.4447485 0.0077319
 7292.72541 1.4587643 0.0077456
 7300.01757 1.4711272 0.0077641
 7307.30973 1.4853464 0.0077812
 7314.62014 1.4907774 0.0078057
 7321.93055 1.5047156 0.0077907
 7329.25920 1.5160451 0.0078247
 7336.58786 1.5163083 0.0078611
 7343.93432 1.5222120 0.0078956
 7351.26298 1.5200014 0.0079318
 7358.62813 1.5291744 0.0079635
 7365.99328 1.5310345 0.0079997
 7373.35843 1.5334557 0.0080348
 7380.72359 1.5312479 0.0080751
 7388.10654 1.5323007 0.0081140
 7395.48994 1.5357174 0.0081531
 7402.89159 1.5336291 0.0081920
 7410.29324 1.5258856 0.0082363
 7417.69489 1.5264854 0.0082720
 7425.11435 1.5199918 0.0083025
 7432.55249 1.5168998 0.0083390
 7439.97239 1.5152272 0.0083783
 7447.42834 1.5114599 0.0084004
 7454.86648 1.5050277 0.0085411
 7462.32288 1.5032783 0.0085244
 7469.77927 1.4925638 0.0085376
 7477.25302 1.4731070 0.0086452
 7484.72767 1.4655043 0.0088215
 7492.22100 1.4500616 0.0090452
 7499.71345 1.4432629 0.0092897
 7507.20589 1.4233711 0.0095494
 7514.71703 1.4189991 0.0097912
 7522.22817 1.4108033 0.0100090
 7529.75711 1.3986232 0.0101791
 7537.28605 1.3837876 0.0102978
 7544.81499 1.3641045 0.0103647
 7552.36263 1.3440286 0.0103789
 7559.92807 1.3272363 0.0103489
 7567.47570 1.2985742 0.0103031
 7575.05983 1.2782129 0.0102640
 7582.62527 1.2511537 0.0102888
 7590.20940 1.2188617 0.0103429
 7597.79264 1.1860259 0.0106284
 7605.39458 1.1556494 0.0105805
 7612.99740 1.1275717 0.0105310
 7620.61714 1.0993500 0.0105930
 7628.23777 1.0807829 0.0105894
 7635.87620 1.0627491 0.0109044
 7643.49683 1.0566868 0.0105474
 7651.15306 1.0553399 0.0104063
 7658.79149 1.0584384 0.0103572
 7666.44862 1.0634096 0.0103312
 7674.12354 1.0670292 0.0103153
 7681.79847 1.0713362 0.0102214
 7689.47340 1.0795203 0.0101524
 7697.16702 1.0856271 0.0100589
 7704.85975 1.1001787 0.0099372
 7712.57117 1.1114084 0.0097798
 7720.28260 1.1167490 0.0096192
 7728.01272 1.1201499 0.0094171
 7735.74194 1.1233695 0.0092003
 7743.47206 1.1234446 0.0090162
 7751.21998 1.1239177 0.0088465
 7758.96790 1.1271731 0.0087036
 7766.73362 1.1339175 0.0086050
 7774.50024 1.1419330 0.0085778
 7782.26596 1.1495426 0.0086690
 7790.05038 1.1598533 0.0084030
 7797.83479 1.1687804 0.0083389
 7805.63790 1.1795144 0.0082726
 7813.44012 1.1856183 0.0081592
 7821.26104 1.1910281 0.0081033
 7829.08195 1.1977791 0.0080478
 7836.90286 1.2105155 0.0079911
 7844.74158 1.2191339 0.0079496
 7852.59899 1.2314988 0.0079385
 7860.43859 1.2398452 0.0078858
 7868.31381 1.2433408 0.0078386
 7876.17121 1.2485121 0.0078333
 7884.04643 1.2549863 0.0077727
 7891.94033 1.2554270 0.0077130
 7899.83424 1.2595686 0.0076752
 7907.72814 1.2589883 0.0076807
 7915.63985 1.2625833 0.0077069
 7923.55156 1.2614638 0.0077386
 7931.48196 1.2616484 0.0077772
 7939.41237 1.2657529 0.0077693
 7947.34277 1.2670057 0.0077808
 7955.29097 1.2680795 0.0077763
 7963.25787 1.2627594 0.0077537
 7971.20608 1.2588784 0.0077068
 7979.19078 1.2600282 0.0076725
 7987.15768 1.2606713 0.0075632
 7995.14238 1.2575915 0.0075002
 8003.14578 1.2541255 0.0074297
 8011.14917 1.2453746 0.0073660
 8019.17037 1.2375987 0.0073269
 8027.17376 1.2311500 0.0072978
 8035.21277 1.2280515 0.0072877
 8043.25266 1.2245688 0.0072441
 8051.29255 1.2169565 0.0072348
 8059.33155 1.2073090 0.0072190
 8067.40794 1.1999892 0.0071696
 8075.46563 1.1844070 0.0071442
 8083.54202 1.1746230 0.0071229
 8091.63621 1.1674508 0.0071038
 8099.71260 1.1520694 0.0070775
 8107.82459 1.1369087 0.0070478
 8115.91878 1.1137167 0.0070213
 8124.04947 1.0928957 0.0069875
 8132.16235 1.0692691 0.0069205
 8140.31174 1.0463789 0.0068941
 8148.44242 1.0224715 0.0068981
 8156.59091 1.0031364 0.0068682
 8164.75810 0.9857792 0.0068071
 8172.90748 0.9696068 0.0067822
 8181.09246 0.9635305 0.0067581
 8189.25965 0.9625381 0.0067261
 8197.46333 0.9686719 0.0066986
 8205.64921 0.9718920 0.0066741
 8213.85289 0.9819938 0.0066520
 8222.07437 0.9933007 0.0065927
 8230.29674 1.0002362 0.0065960
 8238.53692 1.0160800 0.0065691
 8246.75840 1.0308347 0.0065179
 8255.01727 1.0385931 0.0065037
 8263.27525 1.0453432 0.0065059
 8271.53412 1.0525399 0.0064558
 8279.80990 1.0635217 0.0064398
 8288.08658 1.0769283 0.0064247
 8296.38194 1.0899651 0.0064093
 8304.67642 1.1007864 0.0063924
 8312.97179 1.1122521 0.0063759
 8321.28407 1.1208103 0.0063307
 8329.61593 1.1267040 0.0063383
 8337.94690 1.1410381 0.0062976
 8346.27876 1.1519982 0.0062727
 8354.62754 1.1662679 0.0062630
 8362.97721 1.1713487 0.0062099
 8371.34556 1.1809287 0.0061993
 8379.71303 1.1864078 0.0061804
 8388.09920 1.1829509 0.0061590
 8396.48447 1.1865487 0.0061544
 8404.88932 1.1830397 0.0061242
 8413.29329 1.1810111 0.0061483
 8421.69725 1.1813381 0.0061850
 8430.11991 1.1805222 0.0062356
 8438.56037 1.1790308 0.0061552
 8447.00173 1.1766500 0.0060599
 8455.44219 1.1695879 0.0060919
 8463.90134 1.1605011 0.0061673
 8472.35961 1.1523443 0.0062344
 8480.83657 1.1456389 0.0062926
 8489.31441 1.1385185 0.0063467
 8497.80918 1.1321449 0.0063790
 8506.30483 1.1234756 0.0063764
 8514.81828 1.1116266 0.0063579
 8523.31393 1.1044768 0.0061466
 8531.84519 1.1005759 0.0060343
 8540.37734 1.0942634 0.0058919
 8548.92729 1.0848070 0.0057933
 8557.47724 1.0817527 0.0057011
 8566.02719 1.0775548 0.0056423
 8574.59584 1.0745500 0.0056168
 8583.16448 1.0672210 0.0056541
 8591.75093 1.0592479 0.0056488
 8600.33737 1.0585043 0.0055238
 8608.94162 1.0519063 0.0054056
 8617.56457 1.0440046 0.0053599
 8626.16971 1.0390944 0.0052568
 8634.79265 1.0312480 0.0052026
 8643.43429 1.0270288 0.0051063
 8652.07504 1.0174387 0.0050576
 8660.73448 1.0088030 0.0050179
 8669.39392 1.0023351 0.0050230
 8678.07205 0.9958820 0.0050349
 8686.73149 0.9923805 0.0050028
 8695.42743 0.9878290 0.0050126
 8704.12247 0.9827460 0.0049947
 8712.83710 0.9796714 0.0050251
 8721.55084 0.9803041 0.0050191
 8730.26547 0.9820299 0.0050624
 8738.99791 0.9784493 0.0050643
 8747.73034 0.9779316 0.0050721
 8756.48058 0.9809307 0.0050726
 8765.23081 0.9853950 0.0050767
 8773.99974 0.9852723 0.0050659
 8782.78736 0.9875437 0.0050506
 8791.57410 0.9877980 0.0050161
 8800.36083 0.9906830 0.0050323
 8809.14845 0.9904003 0.0050012
 8817.97168 0.9862663 0.0050229
 8826.77711 0.9855033 0.0049921
 8835.60034 0.9871094 0.0049811
 8844.44226 0.9821393 0.0049671
 8853.28418 0.9819555 0.0049540
 8862.14391 0.9828584 0.0049204
 8871.00363 0.9813014 0.0049050
 8879.88205 0.9811304 0.0048641
 8888.76047 0.9826993 0.0048029
 8897.63889 0.9865927 0.0047862
 8906.55291 0.9828475 0.0047332
 8915.45002 0.9851697 0.0046867
 8924.36405 0.9816925 0.0046561
 8933.29766 0.9847201 0.0046247
 8942.23037 0.9817386 0.0045878
 8951.16309 0.9758698 0.0045633
 8960.13231 0.9715807 0.0045388
 8969.08372 0.9668307 0.0044867
 8978.05293 0.9585032 0.0044733
 8987.04084 0.9530179 0.0044566
 8996.01006 0.9503118 0.0044196
 9005.01577 0.9456719 0.0044057
 9014.02148 0.9421061 0.0044100
 9023.02719 0.9425402 0.0044027
 9032.05159 0.9402367 0.0044385
 9041.09380 0.9401381 0.0043653
 9050.13601 0.9409318 0.0043532
 9059.17822 0.9446634 0.0043571
 9068.23912 0.9456456 0.0043603
 9077.31782 0.9486837 0.0043806
 9086.39652 0.9538055 0.0044118
 9095.47523 0.9537213 0.0044006
 9104.57173 0.9568950 0.0043928
 9113.66913 0.9518443 0.0043752
 9122.78433 0.9493015 0.0043635
 9131.91733 0.9510613 0.0043204
 9141.05123 0.9492450 0.0042645
 9150.18423 0.9487345 0.0041890
 9159.33593 0.9493734 0.0041195
 9168.48762 0.9469603 0.0040966
 9177.65712 0.9457973 0.0040978
 9186.84532 0.9468005 0.0041284
 9196.03351 0.9440179 0.0041504
 9205.24040 0.9409478 0.0042156
 9214.42859 0.9420770 0.0041630
 9223.65328 0.9412236 0.0041973
 9232.87708 0.9379844 0.0042475
 9242.10177 0.9371932 0.0043016
 9251.34515 0.9392394 0.0043499
 9260.60545 0.9388291 0.0043984
 9269.86663 0.9365482 0.0043892
 9279.12782 0.9344633 0.0044090
 9288.40681 0.9297642 0.0044224
 9297.70449 0.9277899 0.0044401
 9307.00217 0.9260325 0.0043916
 9316.29985 0.9251972 0.0043492
 9325.61534 0.9220814 0.0042808
 9334.94952 0.9213272 0.0042150
 9344.28370 0.9175900 0.0041406
 9353.63568 0.9159459 0.0040832
 9362.98766 0.9132495 0.0040589
 9372.33964 0.9070418 0.0040074
 9381.72901 0.9062207 0.0039472
 9391.09879 0.9044827 0.0039020
 9400.48816 0.9004041 0.0038778
 9409.89444 0.8959390 0.0038250
 9419.30162 0.8924829 0.0037864
 9428.72659 0.8877233 0.0037534
 9438.15156 0.8813928 0.0037145
 9447.59523 0.8744560 0.0036669
 9457.03801 0.8669296 0.0036411
 9466.50037 0.8597899 0.0036212
 9475.96184 0.8522427 0.0035887
 9485.44112 0.8438111 0.0035548
 9494.92128 0.8381220 0.0035381
 9504.41925 0.8306462 0.0035306
 9513.93591 0.8246743 0.0035214
 9523.43388 0.8173221 0.0035002
 9532.96834 0.8126396 0.0034890
 9542.50280 0.8098570 0.0034758
 9552.03727 0.8056889 0.0034629
 9561.58953 0.8029523 0.0034438
 9571.16050 0.8033937 0.0034194
 9580.73146 0.8034304 0.0033910
 9590.30242 0.8022305 0.0033787
 9599.89207 0.8011083 0.0033716
 9609.49953 0.8006245 0.0033653
 9619.10698 0.8015131 0.0033401
 9628.73224 0.8014820 0.0033386
 9638.35839 0.8006443 0.0033381
 9648.00145 0.7975685 0.0033363
 9657.64541 0.7941756 0.0033367
 9667.30805 0.7896300 0.0033357
 9676.96981 0.7874764 0.0033474
 9686.65026 0.7825823 0.0033724
 9696.33071 0.7756673 0.0033477
 9706.02896 0.7676836 0.0033205
 9715.74591 0.7642975 0.0033198
 9725.46285 0.7608414 0.0033466
 9735.17980 0.7562205 0.0033923
 9744.91455 0.7502925 0.0034213
 9754.66799 0.7478179 0.0034533
 9764.42143 0.7421841 0.0035121
 9774.19268 0.7375849 0.0035696
 9783.94612 0.7333134 0.0036484
 9793.73606 0.7268352 0.0036612
 9803.54380 0.7211347 0.0036940
 9813.33374 0.7210747 0.0037198
 9823.15928 0.7159754 0.0037302
 9832.96792 0.7109089 0.0036947
 9842.81215 0.7108783 0.0036932
 9852.65639 0.7100171 0.0036898
 9862.50063 0.7064426 0.0036925
 9872.36356 0.7042509 0.0037034
 9882.24430 0.7022871 0.0036797
 9892.12503 0.7019097 0.0036578
 9902.02446 0.7025878 0.0036273
 9911.92300 0.6994563 0.0036064
 9921.84112 0.6982702 0.0036044
 9931.75835 0.6937438 0.0035781
 9941.69338 0.6901917 0.0035501
 9951.62931 0.6849293 0.0034722
 9961.58303 0.6763707 0.0034105
 9971.53676 0.6693671 0.0033903
 9981.50918 0.6603650 0.0033621
 9991.49941 0.6568977 0.0033676
 10001.48963 0.6515657 0.0033764
 10011.49766 0.6448512 0.0034260
 10021.50657 0.6353722 0.0033355
 10031.53329 0.6328287 0.0032980
 10041.56002 0.6267683 0.0033072
 10051.60454 0.6231109 0.0033187
 10061.64995 0.6235510 0.0033394
 10071.71317 0.6236376 0.0033471
 10081.77639 0.6215318 0.0033265
 10091.85741 0.6186672 0.0033215
 10101.95712 0.6197817 0.0033111
 10112.05683 0.6216915 0.0032916
 10122.17435 0.6249958 0.0033188
 10132.29275 0.6281953 0.0033430
 10142.42896 0.6283801 0.0032456
 10152.58298 0.6282413 0.0031999
 10162.71919 0.6322190 0.0032060
 10172.89189 0.6335169 0.0032140
 10183.06371 0.6366439 0.0032064
 10193.25511 0.6345469 0.0031962
 10203.44561 0.6341638 0.0032707
 10213.63612 0.6302515 0.0033000
 10223.86402 0.6309149 0.0033659
 10234.09102 0.6281235 0.0034944
 10244.31803 0.6256079 0.0036673
 10254.56373 0.6224509 0.0039285
 10264.80943 0.6173037 0.0040626
 10275.07293 0.6154119 0.0041686
 10285.35512 0.6162845 0.0042388
 10295.63643 0.6148452 0.0042305
 10305.93732 0.6092276 0.0041506
 10316.25512 0.6072605 0.0041001
 10326.55601 0.6076764 0.0040242
 10336.89250 0.6065613 0.0037238
 10347.22900 0.6051375 0.0035122
 10357.56549 0.6068054 0.0034433
 10367.93848 0.6087479 0.0034451
 10378.29367 0.6119705 0.0034055
 10388.68446 0.6102076 0.0033528
 10399.07615 0.6115856 0.0034137
 10409.46783 0.6113819 0.0034451
 10419.87732 0.6104702 0.0034987
 10430.30461 0.6079876 0.0035260
 10440.73279 0.6050430 0.0035230
 10451.17877 0.6013353 0.0034809
 10461.62476 0.6004826 0.0034934
 10472.08855 0.5992602 0.0034064
 10482.55322 0.5953876 0.0033815
 10493.03570 0.5914538 0.0033760
 10503.53599 0.5886758 0.0034087
 10514.03716 0.5861580 0.0034367
 10524.55614 0.5824834 0.0034158
 10535.07511 0.5808623 0.0033564
 10545.61189 0.5776200 0.0033580
 10556.14956 0.5775797 0.0034077
 10566.72284 0.5808277 0.0034886
 10577.27831 0.5789201 0.0035379
 10587.87028 0.5754571 0.0036278
 10598.44356 0.5792475 0.0036034
 10609.05422 0.5775584 0.0035884
 10619.66399 0.5725379 0.0035878
 10630.27377 0.5715876 0.0035982
 10640.90223 0.5681928 0.0035711
 10651.54939 0.5637665 0.0036484
 10662.19566 0.5595663 0.0035341
 10672.86062 0.5571970 0.0034557
 10683.54339 0.5497082 0.0034208
 10694.22615 0.5474231 0.0034893
 10704.90892 0.5456243 0.0034262
 10715.62907 0.5418268 0.0034168
 10726.32964 0.5385618 0.0034100
 10737.06759 0.5404001 0.0033946
 10747.80555 0.5369593 0.0033496
 10758.54350 0.5381179 0.0033588
 10769.31707 0.5400357 0.0033668
 10780.07371 0.5383803 0.0034328
 10790.86597 0.5383039 0.0034911
 10801.65822 0.5359572 0.0033763
 10812.45048 0.5333257 0.0033127
 10823.26143 0.5338365 0.0032203
 10834.09018 0.5356373 0.0031582
 10844.91893 0.5345449 0.0030837
 10855.76548 0.5341635 0.0030674
 10866.63162 0.5326765 0.0029337
 10877.49687 0.5307412 0.0029077
 10888.36211 0.5278496 0.0028605
 10899.26386 0.5267088 0.0028708
 10910.16560 0.5253018 0.0027815
 10921.06735 0.5206946 0.0027929
 10931.98689 0.5171007 0.0028183
 10942.92513 0.5148333 0.0028127
 10953.86337 0.5114005 0.0028289
 10964.82031 0.5095358 0.0028793
 10975.79504 0.5054933 0.0029627
 10986.76978 0.4990973 0.0030263
 10997.76232 0.4940544 0.0030371
 11008.75575 0.4887474 0.0030300
 11019.76698 0.4877969 0.0030023
 11030.77733 0.4851361 0.0029469
 11041.80725 0.4835092 0.0028618
 11052.85498 0.4793718 0.0027715
 11063.90271 0.4786107 0.0026889
 11074.96824 0.4774260 0.0026508
 11086.05247 0.4769790 0.0026205
 11097.13669 0.4747231 0.0026515
 11108.23872 0.4695222 0.0025577
 11119.34075 0.4654399 0.0025503
 11130.46148 0.4622182 0.0025874
 11141.58220 0.4598607 0.0026304
 11152.73942 0.4580865 0.0027087
 11163.89574 0.4577173 0.0028280
 11175.05296 0.4558277 0.0029233
 11186.22799 0.4528946 0.0029114
 11197.42170 0.4495067 0.0029198
 11208.61542 0.4491296 0.0030167
 11219.82693 0.4472495 0.0030531
 11231.03845 0.4472091 0.0031663
 11242.26866 0.4463138 0.0031211
 11253.51668 0.4481428 0.0031162
 11264.76469 0.4477092 0.0031242
 11276.03140 0.4508473 0.0032546
 11287.31591 0.4543235 0.0031459
 11298.60042 0.4568487 0.0032277
 11309.90363 0.4582855 0.0032689
 11321.20594 0.4569062 0.0032838
 11332.52695 0.4540291 0.0032473
 11343.86665 0.4520921 0.0032024
 11355.20635 0.4486759 0.0032054
 11366.56385 0.4450299 0.0033126
 11377.93916 0.4422957 0.0033420
 11389.29666 0.4345620 0.0031308
 11400.69066 0.4334806 0.0029564
 11412.10336 0.4317921 0.0028570
 11423.51516 0.4292401 0.0027960
 11434.94566 0.4226484 0.0027273
 11446.37615 0.4181258 0.0027319
 11457.82445 0.4163107 0.0025996
 11469.27364 0.4138613 0.0025513
 11480.74064 0.4130658 0.0025299
 11492.22543 0.4147370 0.0025242
 11503.72892 0.4147050 0.0024356
 11515.23241 0.4170355 0.0023980
 11526.73590 0.4194587 0.0023999
 11538.27589 0.4214223 0.0024034
 11549.81587 0.4229627 0.0023581
 11561.35497 0.4251375 0.0023208
 11572.91365 0.4273931 0.0023424
 11584.49013 0.4303775 0.0023721
 11596.08442 0.4327255 0.0023976
 11607.67870 0.4354739 0.0023970
 11619.27299 0.4410375 0.0024444
 11630.90466 0.4423477 0.0025097
 11642.53544 0.4445270 0.0026057
 11654.18492 0.4462565 0.0026533
 11665.83350 0.4479843 0.0026578
 11677.50078 0.4517093 0.0026813
 11689.18675 0.4547454 0.0026859
 11700.85403 0.4573656 0.0025996
 11712.55869 0.4590883 0.0025824
 11724.28027 0.4599192 0.0025814
 11736.00274 0.4590199 0.0025332
 11747.74301 0.4588814 0.0024260
 11759.48328 0.4574671 0.0024181
 11771.26005 0.4536545 0.0024299
 11783.01901 0.4517161 0.0024929
 11794.79578 0.4481904 0.0025876
 11806.60904 0.4458929 0.0027117
 11818.40362 0.4416125 0.0027907
 11830.21688 0.4395539 0.0028043
 11842.04884 0.4356047 0.0028332
 11853.89860 0.4319508 0.0029302
 11865.74836 0.4340667 0.0029646
 11877.61592 0.4335724 0.0030237
 11889.50218 0.4337637 0.0030041
 11901.38843 0.4359631 0.0029465
 11913.29338 0.4382573 0.0029144
 11925.19744 0.4384504 0.0029448
 11937.12020 0.4424702 0.0029227
 11949.06164 0.4426852 0.0029568
 11961.02000 0.4426638 0.0029858
 11972.97925 0.4426643 0.0029581
 11984.95719 0.4426222 0.0029822
 11996.93425 0.4412375 0.0029258
 12008.92999 0.4396921 0.0029981
 12020.94354 0.4414253 0.0030144
 12032.97578 0.4391695 0.0030477
 12045.00803 0.4380463 0.0029590
 12057.04027 0.4379030 0.0028681
 12069.10812 0.4371670 0.0028426
 12081.17686 0.4362101 0.0028153
 12093.26340 0.4361958 0.0027876
 12105.35083 0.4330440 0.0027665
 12117.45517 0.4299250 0.0026914
 12129.57910 0.4269492 0.0025986
 12141.70214 0.4249932 0.0025793
 12153.84298 0.4229154 0.0025660
 12166.00341 0.4197467 0.0024517
 12178.16294 0.4153253 0.0023751
 12190.34028 0.4111576 0.0023195
 12202.53631 0.4050195 0.0022665
 12214.73323 0.4005704 0.0022797
 12226.94707 0.3972683 0.0022297
 12239.17959 0.3935851 0.0022230
 12251.41212 0.3907463 0.0022045
 12263.68115 0.3867249 0.0021685
 12275.93237 0.3839769 0.0021702
 12288.21919 0.3810673 0.0021496
 12300.50691 0.3780831 0.0021589
 12312.81243 0.3752490 0.0021691
 12325.11795 0.3735498 0.0021898
 12337.44127 0.3701230 0.0021821
 12349.78329 0.3692712 0.0021443
 12362.12531 0.3681477 0.0021135
 12374.50382 0.3669384 0.0020873
 12386.86453 0.3653298 0.0020570
 12399.26085 0.3640693 0.0020429
 12411.65805 0.3632248 0.0020180
 12424.07217 0.3625360 0.0019891
 12436.50587 0.3608399 0.0019816
 12448.93869 0.3601484 0.0020254
 12461.39019 0.3592121 0.0020912
 12473.84170 0.3564983 0.0020700
 12486.31101 0.3535916 0.0020459
 12498.79901 0.3502811 0.0020396
 12511.30482 0.3468662 0.0020935
 12523.81151 0.3428139 0.0021685
 12536.33512 0.3381828 0.0022876
 12548.87831 0.3347669 0.0024147
 12561.42061 0.3291630 0.0025306
 12573.99941 0.3239879 0.0027126
 12586.56041 0.3212660 0.0028484
 12599.15701 0.3154165 0.0030622
 12611.75450 0.3100227 0.0031817
 12624.35199 0.3064696 0.0033283
 12636.98509 0.3040796 0.0032136
 12649.61908 0.3031972 0.0031950
 12662.27087 0.3023490 0.0030981
 12674.94135 0.3009593 0.0031436
 12687.61095 0.2985440 0.0031648
 12700.29923 0.2976048 0.0032142
 12713.00622 0.2982249 0.0032082
 12725.71320 0.2963625 0.0032398
 12738.43798 0.2980901 0.0032610
 12751.18057 0.3013087 0.0032887
 12763.94185 0.3028584 0.0033241
 12776.70313 0.3047486 0.0035333
 12789.46441 0.3086358 0.0033899
 12802.26218 0.3106667 0.0032477
 12815.07776 0.3181536 0.0031647
 12827.87554 0.3212113 0.0030782
 12840.70981 0.3211419 0.0030581
 12853.56278 0.3253472 0.0030033
 12866.39705 0.3238109 0.0030442
 12879.26782 0.3251322 0.0028865
 12892.15640 0.3261546 0.0028565
 12905.04497 0.3262742 0.0028126
 12917.95223 0.3242716 0.0028365
 12930.87730 0.3244310 0.0027524
 12943.80326 0.3228661 0.0027160
 12956.74702 0.3213123 0.0026617
 12969.70859 0.3213876 0.0026255
 12982.67016 0.3210069 0.0026416
 12995.65041 0.3209338 0.0026102
 13008.64848 0.3182632 0.0026110
 13021.66523 0.3167001 0.0026459
 13034.68199 0.3159902 0.0027205
 13047.71654 0.3154489 0.0027856
 13060.76891 0.3152577 0.0028594
 13073.82216 0.3138267 0.0028890
 13086.91191 0.3152425 0.0029184
 13100.00076 0.3109950 0.0029209
 13113.09051 0.3098924 0.0029107
 13126.19806 0.3090627 0.0029438
 13139.34211 0.3070964 0.0029176
 13152.46835 0.3061783 0.0029173
 13165.63020 0.3054932 0.0028925
 13178.79295 0.3040422 0.0028685
 13191.97349 0.3019637 0.0028759
 13205.17273 0.2993883 0.0028873
 13218.37107 0.2971705 0.0029488
 13231.58811 0.2941228 0.0029776
 13244.82385 0.2930628 0.0030512
 13258.07649 0.2911161 0.0031253
 13271.33003 0.2905475 0.0032499
 13284.60226 0.2872740 0.0032506
 13297.89229 0.2843518 0.0033099
 13311.18233 0.2805280 0.0033220
 13324.49016 0.2763221 0.0033846
 13337.81669 0.2743580 0.0034477
 13351.16103 0.2700343 0.0034637
 13364.50625 0.2665775 0.0034834
 13377.86927 0.2616774 0.0035304
 13391.25010 0.2583331 0.0036057
 13404.64963 0.2572214 0.0037132
 13418.04826 0.2575470 0.0038667
 13431.46647 0.2527432 0.0038586
 13444.90249 0.2483138 0.0038878
 13458.35631 0.2469819 0.0039393
 13471.81014 0.2442504 0.0040057
 13485.28265 0.2403761 0.0041155
 13498.75428 0.2371072 0.0041591
 13512.26329 0.2342374 0.0042665
 13525.77230 0.2317234 0.0042501
 13539.29911 0.2271010 0.0043401
 13552.84462 0.2250172 0.0043753
 13566.38924 0.2213669 0.0044119
 13579.95255 0.2160461 0.0045090
 13593.53455 0.2112525 0.0045699
 13607.13436 0.2074321 0.0047006
 13620.75286 0.2067874 0.0047934
 13634.37047 0.2002682 0.0049025
 13648.00678 0.1984160 0.0051362
 13661.64308 0.1977853 0.0054635
 13675.31588 0.1955126 0.0055786
 13688.98868 0.1951790 0.0056401
 13702.68018 0.1939220 0.0057730
 13716.38947 0.1937436 0.0060007
 13730.09877 0.1912895 0.0062977
 13743.82587 0.1913436 0.0067917
 13757.57166 0.1922571 0.0074158
 13771.33526 0.1916392 0.0080508
 13785.09974 0.1956063 0.0086765
 13798.88203 0.2008078 0.0094938
 13812.68213 0.2072552 0.0107008
 13826.50091 0.2167691 0.0121872
 13840.31970 0.2290236 0.0142835
 13854.17498 0.2436530 0.0170654
 13868.02937 0.2665958 0.0202253
 13881.90335 0.2784260 0.0252109
 13895.77643 0.3202393 0.0292366
